---ACOUSTIC CALIBRATION---
Filename: C:\Data\AZH DATA\AZH52\RightPrimary.calib
Date: 8/27/2019 11:39:14 AM
Format: 4
Probe Tube Correction File: C:\Data\Probe Tube Calibrations\50_ProbeTube.calib
Experiment VIs: 850
EPL_CFTS.exe V12.0.1 (2012)
DAQmx V9.6

Attenuation (dB): 40.000000
Min Freq (Hz): 50.000000
Max Freq (Hz): 49950.000000
Freq Step (Hz): 50.000000
Sample Rate (Hz): 100000.000000
[Smoothing]
Method=None
MA.Iterations=0
MA.Length=0
Loess.Length=0
Loess.Type=Linear
Loess.Robust=FALSE


Freq(Hz)	Mag(dB)	Phase(deg)	Unsmoothed(dB)

50.00000	95.75151	595.20584	95.75151
100.00000	82.63569	502.05087	82.63569
150.00000	76.40308	489.20956	76.40308
200.00000	81.60190	458.68571	81.60190
250.00000	88.67740	463.74489	88.67740
300.00000	88.43643	385.77915	88.43643
350.00000	80.54577	378.94559	80.54577
400.00000	88.06869	383.76258	88.06869
450.00000	83.05564	374.27857	83.05564
500.00000	88.18358	355.85339	88.18358
550.00000	90.63392	377.10357	90.63392
600.00000	95.16363	363.34867	95.16363
650.00000	96.44388	350.79921	96.44388
700.00000	98.12654	335.36435	98.12654
750.00000	99.47318	316.83238	99.47318
800.00000	100.90097	294.92486	100.90097
850.00000	100.03795	277.08498	100.03795
900.00000	98.17865	263.25997	98.17865
950.00000	96.37543	259.30213	96.37543
1000.00000	95.09610	260.99093	95.09610
1050.00000	93.10963	276.23014	93.10963
1100.00000	95.19663	298.58200	95.19663
1150.00000	97.82140	300.53113	97.82140
1200.00000	100.53997	297.55971	100.53997
1250.00000	102.17085	290.56812	102.17085
1300.00000	103.87400	284.81047	103.87400
1350.00000	104.97219	275.21978	104.97219
1400.00000	105.79209	267.58727	105.79209
1450.00000	106.79906	263.18032	106.79906
1500.00000	108.20244	255.92101	108.20244
1550.00000	108.92909	246.65321	108.92909
1600.00000	110.47274	235.61993	110.47274
1650.00000	111.23890	219.12303	111.23890
1700.00000	110.13052	208.45126	110.13052
1750.00000	109.74722	203.22421	109.74722
1800.00000	109.51022	198.92003	109.51022
1850.00000	109.60569	198.87654	109.60569
1900.00000	110.89750	194.24639	110.89750
1950.00000	111.55741	180.49962	111.55741
2000.00000	110.51941	168.71566	110.51941
2050.00000	109.27258	173.84614	109.27258
2100.00000	111.17771	173.00474	111.17771
2150.00000	111.81015	160.78977	111.81015
2200.00000	111.68233	150.58962	111.68233
2250.00000	111.04935	144.20506	111.04935
2300.00000	111.18267	138.03795	111.18267
2350.00000	110.91294	131.60210	110.91294
2400.00000	110.65004	125.65883	110.65004
2450.00000	110.27071	119.58030	110.27071
2500.00000	109.92996	114.27540	109.92996
2550.00000	109.44177	108.92560	109.44177
2600.00000	108.91372	104.50543	108.91372
2650.00000	108.31253	100.79319	108.31253
2700.00000	107.81788	96.93188	107.81788
2750.00000	107.13528	93.13144	107.13528
2800.00000	106.33879	90.42690	106.33879
2850.00000	105.61166	88.96710	105.61166
2900.00000	104.83437	87.43636	104.83437
2950.00000	103.84348	87.05324	103.84348
3000.00000	102.91463	87.71490	102.91463
3050.00000	101.74372	90.09895	101.74372
3100.00000	100.58707	96.56207	100.58707
3150.00000	99.66656	106.31898	99.66656
3200.00000	99.62622	122.29037	99.62622
3250.00000	100.70502	136.03903	100.70502
3300.00000	102.21127	145.61204	102.21127
3350.00000	104.08608	152.40823	104.08608
3400.00000	106.39942	156.28567	106.39942
3450.00000	108.60570	155.28886	108.60570
3500.00000	110.77341	151.01314	110.77341
3550.00000	112.37895	143.80475	112.37895
3600.00000	113.78492	137.28119	113.78492
3650.00000	114.96113	129.51102	114.96113
3700.00000	115.97939	122.10948	115.97939
3750.00000	116.97269	113.93804	116.97269
3800.00000	117.72020	105.34924	117.72020
3850.00000	118.25773	97.23611	118.25773
3900.00000	118.77663	89.99040	118.77663
3950.00000	119.34936	82.88247	119.34936
4000.00000	119.88525	75.29663	119.88525
4050.00000	120.40111	67.90349	120.40111
4100.00000	120.96006	60.05983	120.96006
4150.00000	121.64466	51.29190	121.64466
4200.00000	121.99542	41.29612	121.99542
4250.00000	122.24899	30.83426	122.24899
4300.00000	122.32241	20.19239	122.32241
4350.00000	122.15897	 9.64949	122.15897
4400.00000	121.84911	 0.19540	121.84911
4450.00000	121.46575	-8.62697	121.46575
4500.00000	121.06079	-16.67620	121.06079
4550.00000	120.65318	-24.55842	120.65318
4600.00000	120.18724	-32.11340	120.18724
4650.00000	119.75773	-39.51360	119.75773
4700.00000	119.23845	-47.42796	119.23845
4750.00000	118.55524	-55.51144	118.55524
4800.00000	117.64054	-63.40334	117.64054
4850.00000	116.48212	-69.63889	116.48212
4900.00000	115.20935	-73.86149	115.20935
4950.00000	113.97028	-75.67842	113.97028
5000.00000	112.89050	-75.45489	112.89050
5050.00000	111.96382	-75.31428	111.96382
5100.00000	111.02799	-71.28455	111.02799
5150.00000	111.16574	-66.76343	111.16574
5200.00000	111.04635	-62.14882	111.04635
5250.00000	112.69175	-61.50904	112.69175
5300.00000	113.11329	-71.96750	113.11329
5350.00000	112.56965	-78.29736	112.56965
5400.00000	112.04056	-81.44243	112.04056
5450.00000	111.65622	-83.31282	111.65622
5500.00000	111.35419	-85.24610	111.35419
5550.00000	111.13548	-86.78927	111.13548
5600.00000	110.95476	-88.55745	110.95476
5650.00000	110.81356	-90.17544	110.81356
5700.00000	110.67582	-91.93058	110.67582
5750.00000	110.59487	-93.44957	110.59487
5800.00000	110.51750	-95.18929	110.51750
5850.00000	110.50152	-96.89653	110.50152
5900.00000	110.52031	-98.78686	110.52031
5950.00000	110.55310	-101.08891	110.55310
6000.00000	110.59890	-103.57961	110.59890
6050.00000	110.57095	-106.46107	110.57095
6100.00000	110.55383	-109.23450	110.55383
6150.00000	110.49365	-112.10714	110.49365
6200.00000	110.42511	-114.77393	110.42511
6250.00000	110.32933	-117.49789	110.32933
6300.00000	110.26848	-120.13481	110.26848
6350.00000	110.16735	-122.79450	110.16735
6400.00000	110.09555	-125.29637	110.09555
6450.00000	110.02098	-127.84001	110.02098
6500.00000	109.94646	-130.38830	109.94646
6550.00000	109.86155	-132.90939	109.86155
6600.00000	109.81400	-135.38817	109.81400
6650.00000	109.74938	-137.82091	109.74938
6700.00000	109.69969	-140.55181	109.69969
6750.00000	109.64758	-143.04525	109.64758
6800.00000	109.60410	-145.61554	109.60410
6850.00000	109.57124	-148.12192	109.57124
6900.00000	109.52788	-150.80855	109.52788
6950.00000	109.48703	-153.36677	109.48703
7000.00000	109.45384	-155.99133	109.45384
7050.00000	109.40981	-158.79546	109.40981
7100.00000	109.37766	-161.57311	109.37766
7150.00000	109.35645	-164.31531	109.35645
7200.00000	109.30401	-167.26045	109.30401
7250.00000	109.23589	-170.12930	109.23589
7300.00000	109.20618	-173.15557	109.20618
7350.00000	109.13912	-176.01472	109.13912
7400.00000	109.08053	-179.19400	109.08053
7450.00000	108.99527	-182.28779	108.99527
7500.00000	108.92559	-185.43449	108.92559
7550.00000	108.84600	-188.37412	108.84600
7600.00000	108.71289	-191.47184	108.71289
7650.00000	108.59109	-194.52187	108.59109
7700.00000	108.50657	-197.64858	108.50657
7750.00000	108.34094	-200.60769	108.34094
7800.00000	108.18648	-203.50079	108.18648
7850.00000	108.03456	-206.30574	108.03456
7900.00000	107.85912	-209.10482	107.85912
7950.00000	107.73012	-211.75377	107.73012
8000.00000	107.57353	-214.46259	107.57353
8050.00000	107.43064	-217.29318	107.43064
8100.00000	107.29871	-219.35540	107.29871
8150.00000	107.13378	-221.74533	107.13378
8200.00000	106.99823	-223.83604	106.99823
8250.00000	106.85170	-226.02062	106.85170
8300.00000	106.71909	-228.05173	106.71909
8350.00000	106.59285	-229.87209	106.59285
8400.00000	106.43839	-232.22500	106.43839
8450.00000	106.27172	-234.23238	106.27172
8500.00000	106.12771	-236.64984	106.12771
8550.00000	106.06648	-238.68590	106.06648
8600.00000	105.96427	-241.34975	105.96427
8650.00000	105.87716	-243.87061	105.87716
8700.00000	105.84327	-247.05240	105.84327
8750.00000	105.79347	-248.88846	105.79347
8800.00000	105.78737	-252.04095	105.78737
8850.00000	105.76935	-254.76294	105.76935
8900.00000	105.73849	-257.42766	105.73849
8950.00000	105.70546	-260.49318	105.70546
9000.00000	105.53373	-263.30793	105.53373
9050.00000	105.42705	-266.34408	105.42705
9100.00000	105.29686	-269.17167	105.29686
9150.00000	105.15018	-272.10222	105.15018
9200.00000	105.06820	-275.65700	105.06820
9250.00000	104.87785	-278.95660	104.87785
9300.00000	104.77244	-282.15546	104.77244
9350.00000	104.71302	-285.17274	104.71302
9400.00000	104.56369	-287.90222	104.56369
9450.00000	104.49832	-290.51442	104.49832
9500.00000	104.45292	-292.30460	104.45292
9550.00000	104.46795	-294.44170	104.46795
9600.00000	104.51944	-297.51140	104.51944
9650.00000	104.33535	-300.55667	104.33535
9700.00000	104.17911	-302.91949	104.17911
9750.00000	104.03273	-306.40527	104.03273
9800.00000	103.82893	-309.04701	103.82893
9850.00000	103.64691	-312.03582	103.64691
9900.00000	103.31816	-315.34275	103.31816
9950.00000	103.18249	-318.15278	103.18249
10000.00000	103.01183	-321.70531	103.01183
10050.00000	102.81547	-324.44560	102.81547
10100.00000	102.59246	-327.19209	102.59246
10150.00000	102.29126	-330.38915	102.29126
10200.00000	102.06697	-333.19433	102.06697
10250.00000	101.77590	-336.39720	101.77590
10300.00000	101.54388	-339.61623	101.54388
10350.00000	101.22969	-342.54732	101.22969
10400.00000	100.88765	-345.92544	100.88765
10450.00000	100.69308	-349.48660	100.69308
10500.00000	100.49211	-352.90857	100.49211
10550.00000	100.25079	-356.05950	100.25079
10600.00000	99.97128	-359.06063	99.97128
10650.00000	99.65330	-361.44834	99.65330
10700.00000	99.33973	-364.87978	99.33973
10750.00000	99.00954	-367.43721	99.00954
10800.00000	98.53836	-369.89447	98.53836
10850.00000	98.10867	-373.26793	98.10867
10900.00000	97.65366	-375.55049	97.65366
10950.00000	97.21822	-377.56648	97.21822
11000.00000	96.74808	-379.82912	96.74808
11050.00000	96.16680	-381.50429	96.16680
11100.00000	95.69765	-383.75974	95.69765
11150.00000	95.15995	-384.61741	95.15995
11200.00000	94.73361	-385.74614	94.73361
11250.00000	94.16096	-386.81598	94.16096
11300.00000	93.60964	-387.74695	93.60964
11350.00000	93.11404	-387.95154	93.11404
11400.00000	92.59368	-388.67001	92.59368
11450.00000	92.14047	-389.46982	92.14047
11500.00000	91.88468	-388.93969	91.88468
11550.00000	91.44624	-388.69547	91.44624
11600.00000	91.20966	-389.04129	91.20966
11650.00000	90.82868	-387.82311	90.82868
11700.00000	90.63397	-387.22150	90.63397
11750.00000	90.41749	-387.07061	90.41749
11800.00000	90.16365	-387.21051	90.16365
11850.00000	90.05350	-385.43592	90.05350
11900.00000	89.74115	-385.75380	89.74115
11950.00000	89.59416	-385.30290	89.59416
12000.00000	89.38028	-384.66312	89.38028
12050.00000	89.17450	-383.72127	89.17450
12100.00000	89.13987	-384.27382	89.13987
12150.00000	89.06649	-384.22729	89.06649
12200.00000	89.10717	-384.36224	89.10717
12250.00000	89.04011	-384.11204	89.04011
12300.00000	90.17237	-384.39323	90.17237
12350.00000	89.06027	-384.30828	89.06027
12400.00000	89.01801	-383.66363	89.01801
12450.00000	88.99709	-383.51631	88.99709
12500.00000	88.88757	-384.39040	88.88757
12550.00000	88.89246	-384.95093	88.89246
12600.00000	88.73321	-386.10552	88.73321
12650.00000	88.94422	-386.95068	88.94422
12700.00000	88.90406	-386.95706	88.90406
12750.00000	88.85106	-388.91028	88.85106
12800.00000	88.77335	-389.11175	88.77335
12850.00000	88.49372	-389.84882	88.49372
12900.00000	88.45840	-390.71141	88.45840
12950.00000	88.45536	-392.18105	88.45536
13000.00000	88.40321	-393.94418	88.40321
13050.00000	88.45314	-393.55624	88.45314
13100.00000	88.25293	-394.13554	88.25293
13150.00000	88.14545	-395.50826	88.14545
13200.00000	88.15990	-395.07769	88.15990
13250.00000	87.93461	-395.61320	87.93461
13300.00000	87.86916	-394.33326	87.86916
13350.00000	87.84610	-396.22811	87.84610
13400.00000	87.93106	-396.35918	87.93106
13450.00000	87.71105	-395.77390	87.71105
13500.00000	87.71352	-394.75978	87.71352
13550.00000	87.47700	-395.49205	87.47700
13600.00000	87.46732	-396.07197	87.46732
13650.00000	87.44764	-395.65505	87.44764
13700.00000	87.22076	-396.19265	87.22076
13750.00000	87.14706	-396.63718	87.14706
13800.00000	87.08582	-398.50131	87.08582
13850.00000	87.06112	-399.27542	87.06112
13900.00000	86.69271	-398.48584	86.69271
13950.00000	86.71194	-398.94029	86.71194
14000.00000	86.84698	-396.55927	86.84698
14050.00000	86.87871	-397.23367	86.87871
14100.00000	86.73510	-396.30026	86.73510
14150.00000	86.78638	-396.36287	86.78638
14200.00000	86.83977	-395.14849	86.83977
14250.00000	87.24562	-393.17645	87.24562
14300.00000	87.10027	-392.58964	87.10027
14350.00000	87.19667	-391.36926	87.19667
14400.00000	87.01703	-389.95039	87.01703
14450.00000	87.07663	-386.93212	87.07663
14500.00000	87.21666	-386.83453	87.21666
14550.00000	87.35070	-386.53652	87.35070
14600.00000	87.50137	-385.40832	87.50137
14650.00000	88.00424	-383.00152	88.00424
14700.00000	88.22854	-386.17242	88.22854
14750.00000	88.50154	-384.06760	88.50154
14800.00000	88.65065	-382.54550	88.65065
14850.00000	89.18422	-381.80274	89.18422
14900.00000	89.77507	-381.78104	89.77507
14950.00000	89.94021	-381.78713	89.94021
15000.00000	90.59238	-381.09462	90.59238
15050.00000	90.91694	-379.73947	90.91694
15100.00000	91.25644	-379.12352	91.25644
15150.00000	91.77060	-380.23157	91.77060
15200.00000	92.17532	-379.28590	92.17532
15250.00000	92.46706	-380.29915	92.46706
15300.00000	93.12943	-380.95316	93.12943
15350.00000	93.59191	-382.58762	93.59191
15400.00000	94.04604	-382.36125	94.04604
15450.00000	94.52936	-383.60090	94.52936
15500.00000	95.13327	-385.21321	95.13327
15550.00000	95.60489	-386.66310	95.60489
15600.00000	96.13527	-388.35031	96.13527
15650.00000	96.76668	-388.42384	96.76668
15700.00000	97.10600	-391.33179	97.10600
15750.00000	97.75430	-392.97785	97.75430
15800.00000	98.32818	-394.46534	98.32818
15850.00000	98.77755	-396.94029	98.77755
15900.00000	99.20646	-399.87221	99.20646
15950.00000	99.74229	-402.56440	99.74229
16000.00000	100.21251	-405.05929	100.21251
16050.00000	100.78494	-408.08839	100.78494
16100.00000	101.05121	-411.38073	101.05121
16150.00000	101.40595	-414.54994	101.40595
16200.00000	101.83230	-418.60651	101.83230
16250.00000	102.24305	-421.64516	102.24305
16300.00000	102.75466	-425.18208	102.75466
16350.00000	103.05559	-428.76221	103.05559
16400.00000	103.38557	-431.72917	103.38557
16450.00000	103.65987	-435.15938	103.65987
16500.00000	103.95164	-438.94604	103.95164
16550.00000	104.31195	-443.03822	104.31195
16600.00000	104.58955	-446.38566	104.58955
16650.00000	104.80069	-449.92979	104.80069
16700.00000	105.07409	-453.22118	105.07409
16750.00000	105.22755	-457.10863	105.22755
16800.00000	105.47435	-461.15451	105.47435
16850.00000	105.78195	-464.64341	105.78195
16900.00000	106.00011	-468.23647	106.00011
16950.00000	106.22940	-471.85718	106.22940
17000.00000	106.30359	-475.47671	106.30359
17050.00000	106.53194	-478.35225	106.53194
17100.00000	106.67245	-481.16484	106.67245
17150.00000	106.98034	-485.38374	106.98034
17200.00000	107.18033	-488.75508	107.18033
17250.00000	107.31060	-492.80866	107.31060
17300.00000	107.58694	-496.26809	107.58694
17350.00000	107.63695	-499.64092	107.63695
17400.00000	107.91879	-503.33957	107.91879
17450.00000	108.04071	-507.41244	108.04071
17500.00000	108.24257	-511.07313	108.24257
17550.00000	108.42860	-514.92725	108.42860
17600.00000	108.68048	-518.33887	108.68048
17650.00000	108.83549	-523.13704	108.83549
17700.00000	108.96363	-527.16905	108.96363
17750.00000	109.25765	-530.57531	109.25765
17800.00000	109.27913	-535.32759	109.27913
17850.00000	109.43160	-539.02067	109.43160
17900.00000	109.55325	-543.38280	109.55325
17950.00000	109.74916	-547.95968	109.74916
18000.00000	109.83605	-552.87736	109.83605
18050.00000	110.06712	-556.68095	110.06712
18100.00000	110.06043	-561.69094	110.06043
18150.00000	110.13260	-565.60508	110.13260
18200.00000	110.12839	-570.68249	110.12839
18250.00000	110.25275	-574.56502	110.25275
18300.00000	110.32194	-579.17844	110.32194
18350.00000	110.35423	-583.61236	110.35423
18400.00000	110.29735	-588.52146	110.29735
18450.00000	110.24538	-594.21126	110.24538
18500.00000	110.24809	-598.69271	110.24809
18550.00000	110.19237	-602.71851	110.19237
18600.00000	110.23851	-607.85599	110.23851
18650.00000	110.03710	-612.04641	110.03710
18700.00000	109.94093	-617.17899	109.94093
18750.00000	109.89791	-621.63648	109.89791
18800.00000	109.89364	-625.54200	109.89364
18850.00000	109.65736	-630.37389	109.65736
18900.00000	109.50142	-634.70935	109.50142
18950.00000	109.38506	-639.61777	109.38506
19000.00000	109.09151	-643.60009	109.09151
19050.00000	109.05436	-648.03825	109.05436
19100.00000	108.82787	-652.24158	108.82787
19150.00000	108.76892	-656.27664	108.76892
19200.00000	108.55968	-660.16091	108.55968
19250.00000	108.34170	-665.43721	108.34170
19300.00000	108.06166	-668.95197	108.06166
19350.00000	107.88249	-673.29527	107.88249
19400.00000	107.60143	-677.16639	107.60143
19450.00000	107.43452	-680.84388	107.43452
19500.00000	107.11106	-685.77441	107.11106
19550.00000	106.87899	-689.75161	106.87899
19600.00000	106.66258	-694.29776	106.66258
19650.00000	106.29424	-697.88325	106.29424
19700.00000	105.91239	-701.96390	105.91239
19750.00000	105.57122	-705.37183	105.57122
19800.00000	105.31508	-710.10478	105.31508
19850.00000	104.99027	-713.63223	104.99027
19900.00000	104.55422	-718.10672	104.55422
19950.00000	104.13295	-721.74995	104.13295
20000.00000	103.72809	-725.23686	103.72809
20050.00000	103.30334	-728.92273	103.30334
20100.00000	102.79657	-732.40667	102.79657
20150.00000	102.36172	-734.88000	102.36172
20200.00000	101.83445	-738.93188	101.83445
20250.00000	101.28026	-741.79980	101.28026
20300.00000	100.67710	-744.75943	100.67710
20350.00000	100.19736	-747.53721	100.19736
20400.00000	99.56763	-749.25085	99.56763
20450.00000	98.91118	-751.68825	98.91118
20500.00000	98.36772	-754.16462	98.36772
20550.00000	97.51965	-754.91184	97.51965
20600.00000	97.00753	-756.10785	97.00753
20650.00000	96.37553	-756.99249	96.37553
20700.00000	95.67552	-757.72250	95.67552
20750.00000	95.12263	-757.92769	95.12263
20800.00000	94.45553	-757.56472	94.45553
20850.00000	93.94728	-757.08251	93.94728
20900.00000	93.31581	-756.15080	93.31581
20950.00000	92.81479	-754.63643	92.81479
21000.00000	92.37427	-752.82939	92.37427
21050.00000	92.10695	-750.89643	92.10695
21100.00000	91.76471	-748.58963	91.76471
21150.00000	91.52807	-746.58934	91.52807
21200.00000	91.37841	-744.15170	91.37841
21250.00000	91.33941	-743.23247	91.33941
21300.00000	91.34108	-740.48855	91.34108
21350.00000	91.30541	-739.01446	91.30541
21400.00000	91.33332	-737.70030	91.33332
21450.00000	91.42100	-736.43272	91.42100
21500.00000	91.57437	-735.87225	91.57437
21550.00000	91.61408	-735.05566	91.61408
21600.00000	91.88145	-734.35932	91.88145
21650.00000	91.92267	-734.70185	91.92267
21700.00000	91.99264	-734.24333	91.99264
21750.00000	92.25539	-734.76178	92.25539
21800.00000	92.40860	-734.98716	92.40860
21850.00000	92.41014	-734.82216	92.41014
21900.00000	92.60677	-735.18977	92.60677
21950.00000	92.76053	-736.51543	92.76053
22000.00000	92.94922	-736.82935	92.94922
22050.00000	93.14397	-737.33643	93.14397
22100.00000	93.20948	-738.04020	93.20948
22150.00000	93.35510	-739.46101	93.35510
22200.00000	93.56810	-739.36875	93.56810
22250.00000	93.68486	-740.45050	93.68486
22300.00000	93.77912	-740.77135	93.77912
22350.00000	93.95065	-742.79257	93.95065
22400.00000	94.11908	-743.37054	94.11908
22450.00000	94.20656	-744.66710	94.20656
22500.00000	94.35024	-745.27521	94.35024
22550.00000	94.53095	-746.75411	94.53095
22600.00000	94.61923	-748.75893	94.61923
22650.00000	94.83477	-750.74596	94.83477
22700.00000	94.92091	-751.69905	94.92091
22750.00000	94.96226	-750.87569	94.96226
22800.00000	95.24716	-755.16105	95.24716
22850.00000	95.41540	-757.15042	95.41540
22900.00000	95.47539	-757.68875	95.47539
