---ACOUSTIC CALIBRATION---
Filename: C:\Data\AZH DATA\AZH52\RightPrimary.calib
Date: 8/27/2019 11:39:31 AM
Format: 4
Probe Tube Correction File: C:\Data\Probe Tube Calibrations\50_ProbeTube.calib
Experiment VIs: 850
EPL_CFTS.exe V12.0.1 (2012)
DAQmx V9.6

Attenuation (dB): 40.000000
Min Freq (Hz): 50.000000
Max Freq (Hz): 49950.000000
Freq Step (Hz): 50.000000
Sample Rate (Hz): 100000.000000
[Smoothing]
Method=None
MA.Iterations=0
MA.Length=0
Loess.Length=0
Loess.Type=Linear
Loess.Robust=FALSE


Freq(Hz)	Mag(dB)	Phase(deg)	Unsmoothed(dB)

50.00000	92.08546	473.28810	92.08546
100.00000	84.52912	570.47549	84.52912
150.00000	82.21852	492.52754	82.21852
200.00000	85.14268	443.55282	85.14268
250.00000	93.91165	443.80551	93.91165
300.00000	94.43361	354.49451	94.43361
350.00000	90.85091	392.27021	90.85091
400.00000	88.90952	375.00091	88.90952
450.00000	90.66321	366.93084	90.66321
500.00000	93.19879	373.31477	93.19879
550.00000	95.12551	370.78043	95.12551
600.00000	97.32507	360.26277	97.32507
650.00000	100.85613	350.88958	100.85613
700.00000	102.86833	327.63437	102.86833
750.00000	104.56370	312.15376	104.56370
800.00000	105.19039	287.27001	105.19039
850.00000	104.50939	273.35919	104.50939
900.00000	102.37151	252.96797	102.37151
950.00000	100.85393	255.42981	100.85393
1000.00000	99.39515	255.95176	99.39515
1050.00000	97.30104	273.31304	97.30104
1100.00000	99.36743	293.81638	99.36743
1150.00000	102.11426	298.91160	102.11426
1200.00000	104.96969	297.61670	104.96969
1250.00000	106.61862	290.15795	106.61862
1300.00000	108.45796	284.37539	108.45796
1350.00000	109.61504	274.63494	109.61504
1400.00000	110.70534	268.51666	110.70534
1450.00000	111.63469	260.29511	111.63469
1500.00000	112.65728	251.40435	112.65728
1550.00000	113.50614	244.26403	113.50614
1600.00000	114.85325	234.63769	114.85325
1650.00000	115.89967	217.63147	115.89967
1700.00000	114.62525	207.91882	114.62525
1750.00000	114.41312	201.82393	114.41312
1800.00000	114.10445	197.46031	114.10445
1850.00000	114.37282	196.81646	114.37282
1900.00000	115.57643	191.38924	115.57643
1950.00000	116.17877	177.54136	116.17877
2000.00000	115.12128	165.45946	115.12128
2050.00000	113.83037	170.89628	113.83037
2100.00000	115.65935	170.72471	115.65935
2150.00000	116.27166	158.04084	116.27166
2200.00000	116.13398	147.73838	116.13398
2250.00000	115.48924	140.57138	115.48924
2300.00000	115.55921	135.22002	115.55921
2350.00000	115.20516	128.63428	115.20516
2400.00000	114.88988	123.37554	114.88988
2450.00000	114.54746	116.74003	114.54746
2500.00000	114.10897	112.05695	114.10897
2550.00000	113.64319	106.63124	113.64319
2600.00000	113.04857	102.70350	113.04857
2650.00000	112.51991	99.03579	112.51991
2700.00000	112.04437	95.48137	112.04437
2750.00000	111.32977	92.25950	111.32977
2800.00000	110.61433	89.89334	110.61433
2850.00000	109.89118	88.94709	109.89118
2900.00000	109.15727	87.63942	109.15727
2950.00000	108.32908	87.87842	108.32908
3000.00000	107.49566	89.09126	107.49566
3050.00000	106.45295	92.21887	106.45295
3100.00000	105.72221	98.68235	105.72221
3150.00000	105.05241	106.59285	105.05241
3200.00000	105.04993	118.16374	105.04993
3250.00000	105.73471	128.95711	105.73471
3300.00000	107.01567	137.96206	107.01567
3350.00000	108.52815	144.80609	108.52815
3400.00000	110.52826	149.74530	110.52826
3450.00000	112.66926	150.13196	112.66926
3500.00000	114.76738	146.74911	114.76738
3550.00000	116.40079	140.58956	116.40079
3600.00000	117.85883	134.61295	117.85883
3650.00000	119.08322	127.28337	119.08322
3700.00000	120.17894	119.90396	120.17894
3750.00000	121.19150	111.90414	121.19150
3800.00000	121.97656	103.19496	121.97656
3850.00000	122.54074	94.95009	122.54074
3900.00000	123.03410	87.79939	123.03410
3950.00000	123.63373	80.41257	123.63373
4000.00000	124.16481	72.91691	124.16481
4050.00000	124.68610	65.41583	124.68610
4100.00000	125.23100	57.64743	125.23100
4150.00000	125.93120	49.09528	125.93120
4200.00000	126.30415	39.13115	126.30415
4250.00000	126.61275	28.71128	126.61275
4300.00000	126.72590	17.91899	126.72590
4350.00000	126.60479	 7.22006	126.60479
4400.00000	126.32698	-2.67264	126.32698
4450.00000	125.95056	-11.81578	125.95056
4500.00000	125.53572	-20.21972	125.53572
4550.00000	125.09235	-28.39402	125.09235
4600.00000	124.60048	-36.18990	124.60048
4650.00000	124.11923	-43.68601	124.11923
4700.00000	123.55835	-51.54666	123.55835
4750.00000	122.84276	-59.41944	122.84276
4800.00000	121.93856	-66.89037	121.93856
4850.00000	120.81004	-73.01013	120.81004
4900.00000	119.59558	-77.06291	119.59558
4950.00000	118.42251	-79.06408	118.42251
5000.00000	117.41120	-79.52828	117.41120
5050.00000	116.50788	-79.33422	116.50788
5100.00000	115.53631	-75.78206	115.53631
5150.00000	115.71378	-71.57568	115.71378
5200.00000	115.47526	-67.27859	115.47526
5250.00000	117.14357	-65.48858	117.14357
5300.00000	117.75820	-76.07368	117.75820
5350.00000	117.29914	-83.12052	117.29914
5400.00000	116.79105	-87.05746	116.79105
5450.00000	116.43696	-89.59003	116.43696
5500.00000	116.15807	-92.06447	116.15807
5550.00000	115.93636	-94.17299	115.93636
5600.00000	115.73662	-96.47136	115.73662
5650.00000	115.58452	-98.62446	115.58452
5700.00000	115.43003	-100.97663	115.43003
5750.00000	115.31727	-103.09323	115.31727
5800.00000	115.21502	-105.22407	115.21502
5850.00000	115.16127	-107.63504	115.16127
5900.00000	115.15829	-110.00138	115.15829
5950.00000	115.15726	-112.64170	115.15726
6000.00000	115.16676	-115.62428	115.16676
6050.00000	115.12485	-118.89757	115.12485
6100.00000	115.06453	-122.25131	115.06453
6150.00000	114.97767	-125.62531	114.97767
6200.00000	114.84686	-128.93539	114.84686
6250.00000	114.74154	-132.23124	114.74154
6300.00000	114.62945	-135.42866	114.62945
6350.00000	114.47953	-138.70662	114.47953
6400.00000	114.33009	-141.83175	114.33009
6450.00000	114.20885	-145.11542	114.20885
6500.00000	114.05777	-148.25716	114.05777
6550.00000	113.90303	-151.45641	113.90303
6600.00000	113.75343	-154.56874	113.75343
6650.00000	113.60457	-157.73287	113.60457
6700.00000	113.46434	-161.12761	113.46434
6750.00000	113.31343	-164.37310	113.31343
6800.00000	113.15867	-167.61330	113.15867
6850.00000	112.98670	-170.85613	112.98670
6900.00000	112.80313	-174.10609	112.80313
6950.00000	112.63907	-177.38923	112.63907
7000.00000	112.44434	-180.79809	112.44434
7050.00000	112.22287	-184.25181	112.22287
7100.00000	112.01096	-187.63677	112.01096
7150.00000	111.78464	-190.90659	111.78464
7200.00000	111.52519	-194.36683	111.52519
7250.00000	111.22269	-197.82110	111.22269
7300.00000	110.97181	-201.10994	110.97181
7350.00000	110.63371	-204.28059	110.63371
7400.00000	110.32149	-207.51773	110.32149
7450.00000	109.97141	-210.68837	109.97141
7500.00000	109.61051	-213.61545	109.61051
7550.00000	109.19953	-216.45551	109.19953
7600.00000	108.77547	-219.14983	108.77547
7650.00000	108.34395	-221.68191	108.34395
7700.00000	107.94041	-224.12981	107.94041
7750.00000	107.46360	-226.31513	107.46360
7800.00000	107.04817	-228.35785	107.04817
7850.00000	106.61179	-230.13032	106.61179
7900.00000	106.22882	-231.59224	106.22882
7950.00000	105.85980	-233.02195	105.85980
8000.00000	105.54169	-234.26385	105.54169
8050.00000	105.25528	-235.26510	105.25528
8100.00000	105.03141	-235.51771	105.03141
8150.00000	104.69430	-235.89306	104.69430
8200.00000	104.44839	-235.71549	104.44839
8250.00000	104.20026	-235.80985	104.20026
8300.00000	103.96242	-235.76321	103.96242
8350.00000	103.70423	-235.60864	103.70423
8400.00000	103.44918	-236.07630	103.44918
8450.00000	103.09242	-236.47924	103.09242
8500.00000	102.82399	-237.32396	102.82399
8550.00000	102.63178	-238.20834	102.63178
8600.00000	102.47329	-240.28759	102.47329
8650.00000	102.35357	-241.75678	102.35357
8700.00000	102.33024	-244.27298	102.33024
8750.00000	102.30101	-244.81155	102.30101
8800.00000	102.39828	-246.47730	102.39828
8850.00000	102.46426	-247.55062	102.46426
8900.00000	102.54081	-247.77461	102.54081
8950.00000	102.59025	-248.45120	102.59025
9000.00000	102.47410	-248.57598	102.47410
9050.00000	102.42920	-249.12605	102.42920
9100.00000	102.26214	-249.54501	102.26214
9150.00000	102.11007	-250.40183	102.11007
9200.00000	101.94357	-251.95711	101.94357
9250.00000	101.75209	-253.91980	101.75209
9300.00000	101.72184	-255.76411	101.72184
9350.00000	101.71031	-258.53737	101.71031
9400.00000	101.69517	-260.60904	101.69517
9450.00000	101.87596	-262.26051	101.87596
9500.00000	102.10785	-262.77173	102.10785
9550.00000	102.39629	-263.48951	102.39629
9600.00000	102.64879	-264.99161	102.64879
9650.00000	102.69614	-266.24477	102.69614
9700.00000	102.67926	-266.92651	102.67926
9750.00000	102.68957	-269.03251	102.68957
9800.00000	102.55200	-270.47890	102.55200
9850.00000	102.46262	-272.46181	102.46262
9900.00000	102.31878	-275.28508	102.31878
9950.00000	102.32973	-278.02020	102.32973
10000.00000	102.40742	-281.41730	102.40742
10050.00000	102.46230	-283.96196	102.46230
10100.00000	102.52946	-286.17954	102.52946
10150.00000	102.50639	-288.78659	102.50639
10200.00000	102.51500	-290.80575	102.51500
10250.00000	102.40541	-293.25241	102.40541
10300.00000	102.38754	-295.65691	102.38754
10350.00000	102.19581	-298.19629	102.19581
10400.00000	101.99271	-301.45371	101.99271
10450.00000	101.94374	-304.93234	101.94374
10500.00000	101.92574	-308.31664	101.92574
10550.00000	101.86340	-311.73386	101.86340
10600.00000	101.80767	-314.65009	101.80767
10650.00000	101.71782	-316.81564	101.71782
10700.00000	101.63919	-320.06127	101.63919
10750.00000	101.52629	-322.56251	101.52629
10800.00000	101.29188	-324.80809	101.29188
10850.00000	101.01936	-328.11499	101.01936
10900.00000	100.78547	-330.70926	100.78547
10950.00000	100.53257	-333.15828	100.53257
11000.00000	100.30976	-336.06413	100.30976
11050.00000	99.92002	-338.58934	99.92002
11100.00000	99.67500	-341.47993	99.67500
11150.00000	99.31874	-343.46240	99.31874
11200.00000	99.09041	-345.30230	99.09041
11250.00000	98.70917	-347.51516	98.70917
11300.00000	98.29793	-349.55838	98.29793
11350.00000	97.92988	-350.99487	97.92988
11400.00000	97.47672	-352.73828	97.47672
11450.00000	97.14448	-354.72963	97.14448
11500.00000	96.93703	-355.46522	96.93703
11550.00000	96.53491	-356.38187	96.53491
11600.00000	96.33984	-357.83401	96.33984
11650.00000	96.02047	-357.68669	96.02047
11700.00000	95.77580	-358.31292	95.77580
11750.00000	95.58167	-358.97376	95.58167
11800.00000	95.34201	-360.30562	95.34201
11850.00000	95.20834	-360.05168	95.20834
11900.00000	94.88246	-361.03473	94.88246
11950.00000	94.77172	-361.17278	94.77172
12000.00000	94.55146	-361.24010	94.55146
12050.00000	94.28867	-361.32587	94.28867
12100.00000	94.14929	-362.49501	94.14929
12150.00000	93.93581	-363.60830	93.93581
12200.00000	93.91864	-364.95884	93.91864
12250.00000	93.80016	-365.45528	93.80016
12300.00000	94.81329	-366.61714	94.81329
12350.00000	93.67415	-367.67725	93.67415
12400.00000	93.58590	-367.36133	93.58590
12450.00000	93.42865	-367.67757	93.42865
12500.00000	93.22377	-368.86827	93.22377
12550.00000	93.03304	-370.02667	93.03304
12600.00000	92.76098	-371.27849	92.76098
12650.00000	92.71119	-372.68088	92.71119
12700.00000	92.47647	-373.96673	92.47647
12750.00000	92.35603	-375.26850	92.35603
12800.00000	92.19507	-375.68208	92.19507
12850.00000	91.67369	-375.63283	91.67369
12900.00000	91.51685	-376.61124	91.51685
12950.00000	91.25078	-377.57435	91.25078
13000.00000	90.94525	-378.34333	90.94525
13050.00000	90.77015	-377.95216	90.77015
13100.00000	90.47810	-378.24960	90.47810
13150.00000	90.26959	-378.95182	90.26959
13200.00000	90.12511	-377.03148	90.12511
13250.00000	89.98515	-376.64259	89.98515
13300.00000	89.66736	-373.82174	89.66736
13350.00000	89.43288	-373.36278	89.43288
13400.00000	89.38821	-372.47828	89.38821
13450.00000	89.07941	-370.82945	89.07941
13500.00000	89.03647	-369.07556	89.03647
13550.00000	88.92223	-368.70186	88.92223
13600.00000	88.96263	-366.62503	88.96263
13650.00000	89.07372	-364.42697	89.07372
13700.00000	88.95840	-362.65721	88.95840
13750.00000	88.76528	-360.37047	88.76528
13800.00000	88.88215	-361.16999	88.88215
13850.00000	88.85347	-360.27635	88.85347
13900.00000	89.02447	-359.95990	89.02447
13950.00000	89.38672	-358.02402	89.38672
14000.00000	89.77757	-355.29443	89.77757
14050.00000	90.16304	-352.59285	90.16304
14100.00000	90.15473	-351.76990	90.15473
14150.00000	90.37546	-350.22151	90.37546
14200.00000	90.74861	-349.23933	90.74861
14250.00000	91.38522	-347.36561	91.38522
14300.00000	91.71949	-346.69917	91.71949
14350.00000	92.23094	-344.28515	92.23094
14400.00000	92.20439	-345.12017	92.20439
14450.00000	92.75832	-342.49734	92.75832
14500.00000	93.07420	-343.22558	93.07420
14550.00000	93.60546	-342.45922	93.60546
14600.00000	93.93295	-344.01994	93.93295
14650.00000	94.57942	-342.29642	94.57942
14700.00000	95.08864	-346.78954	95.08864
14750.00000	95.59608	-347.29818	95.59608
14800.00000	96.06289	-346.93952	96.06289
14850.00000	96.71786	-347.44650	96.71786
14900.00000	97.21870	-348.22381	97.21870
14950.00000	97.67000	-349.71712	97.67000
15000.00000	98.22159	-351.29523	98.22159
15050.00000	98.60991	-351.75833	98.60991
15100.00000	99.24077	-352.85731	99.24077
15150.00000	99.90390	-355.21022	99.90390
15200.00000	100.29681	-355.85438	100.29681
15250.00000	100.61579	-358.67150	100.61579
15300.00000	101.23219	-361.64929	101.23219
15350.00000	101.72479	-365.05205	101.72479
15400.00000	102.13489	-366.86802	102.13489
15450.00000	102.57308	-370.13421	102.57308
15500.00000	103.13953	-373.22836	103.13953
15550.00000	103.57672	-376.61840	103.57672
15600.00000	103.92342	-380.13740	103.92342
15650.00000	104.43105	-381.75372	104.43105
15700.00000	104.59305	-386.48241	104.59305
15750.00000	105.07319	-389.84278	105.07319
15800.00000	105.41480	-392.76602	105.41480
15850.00000	105.67484	-396.24377	105.67484
15900.00000	105.79893	-400.10936	105.79893
15950.00000	106.17112	-403.93093	106.17112
16000.00000	106.36900	-407.43980	106.36900
16050.00000	106.67251	-410.98152	106.67251
16100.00000	106.71986	-415.10046	106.71986
16150.00000	106.84941	-418.56314	106.84941
16200.00000	107.02783	-422.49843	107.02783
16250.00000	107.15896	-425.79267	107.15896
16300.00000	107.44547	-429.15342	107.44547
16350.00000	107.50265	-432.58693	107.50265
16400.00000	107.62105	-435.59192	107.62105
16450.00000	107.74283	-438.76198	107.74283
16500.00000	107.78050	-441.64195	107.78050
16550.00000	107.94824	-445.92516	107.94824
16600.00000	108.10052	-448.71178	108.10052
16650.00000	108.13009	-451.75563	108.13009
16700.00000	108.23418	-454.55572	108.23418
16750.00000	108.24152	-457.95952	108.24152
16800.00000	108.37169	-461.50615	108.37169
16850.00000	108.54170	-464.32439	108.54170
16900.00000	108.63925	-467.38407	108.63925
16950.00000	108.72176	-470.62410	108.72176
17000.00000	108.70116	-473.78668	108.70116
17050.00000	108.83250	-476.08727	108.83250
17100.00000	108.77677	-478.06058	108.77677
17150.00000	109.04585	-481.93445	109.04585
17200.00000	109.11724	-484.83760	109.11724
17250.00000	109.15943	-488.41833	109.15943
17300.00000	109.33481	-491.36040	109.33481
17350.00000	109.29077	-494.23664	109.29077
17400.00000	109.45219	-497.32330	109.45219
17450.00000	109.46941	-500.96316	109.46941
17500.00000	109.55875	-504.01017	109.55875
17550.00000	109.63379	-507.30732	109.63379
17600.00000	109.78719	-510.16242	109.78719
17650.00000	109.82574	-514.17598	109.82574
17700.00000	109.77567	-517.93232	109.77567
17750.00000	110.01137	-520.36746	110.01137
17800.00000	109.92988	-524.39803	109.92988
17850.00000	109.98902	-527.35979	109.98902
17900.00000	109.97469	-530.95380	109.97469
17950.00000	110.06439	-534.69930	110.06439
18000.00000	110.04358	-538.57701	110.04358
18050.00000	110.17696	-541.55635	110.17696
18100.00000	110.06704	-545.56949	110.06704
18150.00000	110.04309	-548.48340	110.04309
18200.00000	109.94251	-552.58330	109.94251
18250.00000	109.97288	-555.34907	109.97288
18300.00000	110.02141	-558.92831	110.02141
18350.00000	109.89059	-562.20756	109.89059
18400.00000	109.77107	-565.82926	109.77107
18450.00000	109.65598	-570.31783	109.65598
18500.00000	109.58912	-573.51621	109.58912
18550.00000	109.48566	-576.28974	109.48566
18600.00000	109.47961	-580.06412	109.47961
18650.00000	109.20993	-582.92510	109.20993
18700.00000	109.07697	-586.63164	109.07697
18750.00000	109.00791	-589.57724	109.00791
18800.00000	108.98231	-592.16554	108.98231
18850.00000	108.71144	-595.29514	108.71144
18900.00000	108.50548	-598.05110	108.50548
18950.00000	108.43046	-601.51845	108.43046
19000.00000	108.15060	-603.78445	108.15060
19050.00000	108.15148	-606.77342	108.15148
19100.00000	107.95412	-609.16993	107.95412
19150.00000	107.95226	-611.70533	107.95226
19200.00000	107.79214	-613.93548	107.79214
19250.00000	107.63448	-617.48862	107.63448
19300.00000	107.45425	-619.30255	107.45425
19350.00000	107.35121	-621.83538	107.35121
19400.00000	107.17928	-624.17200	107.17928
19450.00000	107.16853	-626.02477	107.16853
19500.00000	107.01317	-629.12403	107.01317
19550.00000	106.89363	-631.49814	106.89363
19600.00000	106.84538	-634.45252	106.84538
19650.00000	106.67815	-636.40036	106.67815
19700.00000	106.48523	-638.92148	106.48523
19750.00000	106.36189	-640.80524	106.36189
19800.00000	106.35791	-644.03051	106.35791
19850.00000	106.26605	-646.05937	106.26605
19900.00000	106.10331	-649.17614	106.10331
19950.00000	105.96694	-651.47517	105.96694
20000.00000	105.86371	-653.95038	105.86371
20050.00000	105.77705	-656.31502	105.77705
20100.00000	105.58657	-658.88668	105.58657
20150.00000	105.49120	-660.28539	105.49120
20200.00000	105.32164	-663.46707	105.32164
20250.00000	105.12665	-665.74759	105.12665
20300.00000	104.90424	-668.06375	104.90424
20350.00000	104.82563	-670.47986	104.82563
20400.00000	104.60930	-671.97107	104.60930
20450.00000	104.34266	-674.25687	104.34266
20500.00000	104.23152	-676.57311	104.23152
20550.00000	103.82715	-677.83220	103.82715
20600.00000	103.72600	-679.31006	103.72600
20650.00000	103.52390	-681.00676	103.52390
20700.00000	103.28590	-682.62223	103.28590
20750.00000	103.14029	-683.71747	103.14029
20800.00000	102.91789	-684.48803	102.91789
20850.00000	102.81921	-685.63495	102.81921
20900.00000	102.58504	-686.53580	102.58504
20950.00000	102.43277	-686.87149	102.43277
21000.00000	102.34548	-687.32373	102.34548
21050.00000	102.39872	-687.49863	102.39872
21100.00000	102.32549	-687.68081	102.32549
21150.00000	102.39663	-688.55128	102.39663
21200.00000	102.46430	-688.79208	102.46430
21250.00000	102.52162	-690.77626	102.52162
21300.00000	102.69154	-691.25153	102.69154
21350.00000	102.73466	-692.12382	102.73466
21400.00000	102.82052	-693.95100	102.82052
21450.00000	102.92082	-695.46954	102.92082
21500.00000	103.03054	-697.47565	103.03054
21550.00000	103.00397	-698.82741	103.00397
21600.00000	103.12256	-701.01578	103.12256
21650.00000	103.15019	-703.29841	103.15019
21700.00000	103.16715	-705.00588	103.16715
21750.00000	103.22069	-707.02526	103.22069
21800.00000	103.19880	-709.09614	103.19880
21850.00000	103.11150	-710.98069	103.11150
21900.00000	103.15338	-712.67812	103.15338
21950.00000	103.11134	-714.59913	103.11134
22000.00000	103.13601	-716.38823	103.13601
22050.00000	103.07636	-717.84525	103.07636
22100.00000	103.04378	-719.66797	103.04378
22150.00000	102.98577	-721.60883	102.98577
22200.00000	103.05012	-723.08970	103.05012
22250.00000	102.96067	-724.14762	102.96067
22300.00000	102.84436	-726.11141	102.84436
22350.00000	102.95890	-727.94850	102.95890
22400.00000	102.96315	-729.68624	102.96315
22450.00000	102.88331	-731.18334	102.88331
22500.00000	102.80406	-731.83450	102.80406
22550.00000	102.81093	-733.75040	102.81093
22600.00000	102.79037	-736.17482	102.79037
22650.00000	102.81689	-737.68586	102.81689
22700.00000	102.78686	-738.99175	102.78686
