---ACOUSTIC CALIBRATION---
Filename: C:\Data\AZH DATA\AZH52\RightSecondary.calib
Date: 8/27/2019 11:39:55 AM
Format: 4
Probe Tube Correction File: C:\Data\Probe Tube Calibrations\50_ProbeTube.calib
Experiment VIs: 850
EPL_CFTS.exe V12.0.1 (2012)
DAQmx V9.6

Attenuation (dB): 40.000000
Min Freq (Hz): 50.000000
Max Freq (Hz): 49950.000000
Freq Step (Hz): 50.000000
Sample Rate (Hz): 100000.000000
[Smoothing]
Method=None
MA.Iterations=0
MA.Length=0
Loess.Length=0
Loess.Type=Linear
Loess.Robust=FALSE


Freq(Hz)	Mag(dB)	Phase(deg)	Unsmoothed(dB)

50.00000	104.76148	647.20765	104.76148
100.00000	84.26567	556.16009	84.26567
150.00000	84.27441	481.95069	84.27441
200.00000	82.70005	427.74102	82.70005
250.00000	97.24803	404.49042	97.24803
300.00000	95.32668	303.30154	95.32668
350.00000	92.37798	327.91231	92.37798
400.00000	90.06576	301.40708	90.06576
450.00000	88.16338	292.33370	88.16338
500.00000	87.93572	302.15310	87.93572
550.00000	88.50942	331.73169	88.50942
600.00000	93.05282	336.49530	93.05282
650.00000	95.32134	332.69226	95.32134
700.00000	98.82587	320.97840	98.82587
750.00000	101.22588	316.37677	101.22588
800.00000	103.83037	304.53089	103.83037
850.00000	106.01799	293.76148	106.01799
900.00000	107.59515	275.55215	107.59515
950.00000	108.72727	260.31030	108.72727
1000.00000	108.71471	242.77402	108.71471
1050.00000	108.26842	233.44647	108.26842
1100.00000	108.38050	221.57641	108.38050
1150.00000	107.44387	211.76161	107.44387
1200.00000	107.27803	210.18112	107.27803
1250.00000	107.32751	200.66583	107.32751
1300.00000	106.57662	195.28269	106.57662
1350.00000	105.98217	190.15312	105.98217
1400.00000	105.30608	190.37788	105.30608
1450.00000	105.52895	190.17664	105.52895
1500.00000	105.48238	186.04263	105.48238
1550.00000	105.74159	185.81760	105.74159
1600.00000	106.44588	183.62839	106.44588
1650.00000	107.22155	174.05049	107.22155
1700.00000	105.83355	169.51376	105.83355
1750.00000	105.75709	169.88411	105.75709
1800.00000	105.49797	166.99390	105.49797
1850.00000	105.51471	170.33376	105.51471
1900.00000	106.74812	169.87662	106.74812
1950.00000	107.52864	160.07300	107.52864
2000.00000	107.15863	150.75351	107.15863
2050.00000	106.14188	148.09728	106.14188
2100.00000	105.89564	143.27583	105.89564
2150.00000	105.60152	142.12293	105.60152
2200.00000	105.16838	139.53779	105.16838
2250.00000	104.02114	138.32192	104.02114
2300.00000	103.91542	142.67912	103.91542
2350.00000	103.75041	145.65332	103.75041
2400.00000	104.24681	148.24482	104.24681
2450.00000	104.16878	147.16472	104.16878
2500.00000	104.25125	150.82968	104.25125
2550.00000	104.75615	154.81036	104.75615
2600.00000	106.07248	157.75461	106.07248
2650.00000	107.69334	153.81301	107.69334
2700.00000	108.56269	144.73558	108.56269
2750.00000	108.93676	135.59207	108.93676
2800.00000	108.76900	128.26093	108.76900
2850.00000	108.46295	122.93507	108.46295
2900.00000	108.14825	118.90564	108.14825
2950.00000	107.82064	116.01479	107.82064
3000.00000	107.58092	113.18895	107.58092
3050.00000	107.27589	111.10877	107.27589
3100.00000	107.17116	109.33738	107.17116
3150.00000	106.94259	105.44613	106.94259
3200.00000	106.36084	102.59125	106.36084
3250.00000	105.73125	100.76481	105.73125
3300.00000	105.06115	99.65698	105.06115
3350.00000	103.96098	99.87075	103.96098
3400.00000	103.14353	106.11588	103.14353
3450.00000	102.97547	113.45001	102.97547
3500.00000	103.43466	119.10740	103.43466
3550.00000	103.59285	121.44031	103.59285
3600.00000	103.79383	123.82280	103.79383
3650.00000	103.33794	126.88258	103.33794
3700.00000	103.04030	137.55720	103.04030
3750.00000	104.08712	151.16873	104.08712
3800.00000	106.11334	159.23155	106.11334
3850.00000	108.26764	161.44152	108.26764
3900.00000	110.13676	160.83734	110.13676
3950.00000	111.85853	156.78406	111.85853
4000.00000	113.10298	151.95703	113.10298
4050.00000	114.15439	146.76338	114.15439
4100.00000	114.96501	142.61324	114.96501
4150.00000	115.83627	139.23836	115.83627
4200.00000	116.57747	136.10721	116.57747
4250.00000	117.43255	133.74346	117.43255
4300.00000	118.44895	131.53026	118.44895
4350.00000	119.55429	128.53579	119.55429
4400.00000	120.76481	124.93271	120.76481
4450.00000	122.01460	120.60414	122.01460
4500.00000	123.37558	115.08560	123.37558
4550.00000	124.72531	108.02073	124.72531
4600.00000	126.02704	99.75124	126.02704
4650.00000	127.31623	90.00137	127.31623
4700.00000	128.46140	78.29226	128.46140
4750.00000	129.36335	64.84526	129.36335
4800.00000	129.93006	50.07337	129.93006
4850.00000	130.04428	34.90649	130.04428
4900.00000	129.73356	20.28765	129.73356
4950.00000	129.02496	 6.93207	129.02496
5000.00000	127.93573	-4.10913	127.93573
5050.00000	126.81184	-11.88607	126.81184
5100.00000	125.38338	-20.12095	125.38338
5150.00000	122.81467	-19.19669	122.81467
5200.00000	122.49070	 1.99155	122.49070
5250.00000	125.87826	 3.92881	125.87826
5300.00000	127.51469	-10.55289	127.51469
5350.00000	127.75902	-24.49601	127.75902
5400.00000	127.47506	-35.61415	127.47506
5450.00000	127.04455	-44.45365	127.04455
5500.00000	126.57649	-52.02994	126.57649
5550.00000	126.11118	-58.68371	126.11118
5600.00000	125.64303	-64.73427	125.64303
5650.00000	125.20247	-70.21866	125.20247
5700.00000	124.75661	-75.56838	124.75661
5750.00000	124.34147	-80.47833	124.34147
5800.00000	123.91501	-85.07667	123.91501
5850.00000	123.51876	-89.49114	123.51876
5900.00000	123.16107	-93.81884	123.16107
5950.00000	122.79920	-97.97218	122.79920
6000.00000	122.46180	-101.98353	122.46180
6050.00000	122.09087	-106.01494	122.09087
6100.00000	121.75587	-109.85856	121.75587
6150.00000	121.41811	-113.72161	121.41811
6200.00000	121.09340	-117.52445	121.09340
6250.00000	120.76413	-121.26863	120.76413
6300.00000	120.46048	-124.96742	120.46048
6350.00000	120.11638	-128.63055	120.11638
6400.00000	119.78634	-131.96633	119.78634
6450.00000	119.48970	-135.57786	119.48970
6500.00000	119.12587	-139.14855	119.12587
6550.00000	118.77358	-142.36640	118.77358
6600.00000	118.42715	-145.62892	118.42715
6650.00000	118.08512	-148.73352	118.08512
6700.00000	117.73534	-151.98280	117.73534
6750.00000	117.38582	-155.07654	117.38582
6800.00000	117.04048	-157.92905	117.04048
6850.00000	116.69148	-160.77175	116.69148
6900.00000	116.38420	-163.40346	116.38420
6950.00000	116.05182	-165.99994	116.05182
7000.00000	115.77134	-168.87742	115.77134
7050.00000	115.43975	-171.77282	115.43975
7100.00000	115.11394	-174.66900	115.11394
7150.00000	114.75350	-177.16474	114.75350
7200.00000	114.37105	-179.47101	114.37105
7250.00000	114.01216	-181.63154	114.01216
7300.00000	113.73854	-183.72628	113.73854
7350.00000	113.41061	-185.31818	113.41061
7400.00000	113.14855	-187.47506	113.14855
7450.00000	112.80372	-189.31279	112.80372
7500.00000	112.51664	-190.97565	112.51664
7550.00000	112.25272	-192.40944	112.25272
7600.00000	112.02525	-194.09858	112.02525
7650.00000	111.85018	-195.70548	111.85018
7700.00000	111.69982	-197.57457	111.69982
7750.00000	111.41502	-199.85888	111.41502
7800.00000	111.19169	-202.01784	111.19169
7850.00000	110.87764	-203.92767	110.87764
7900.00000	110.66688	-205.48253	110.66688
7950.00000	110.40708	-207.64616	110.40708
8000.00000	110.15498	-209.39129	110.15498
8050.00000	109.88999	-211.23570	109.88999
8100.00000	109.60894	-212.58324	109.60894
8150.00000	109.37928	-213.85039	109.37928
8200.00000	109.14552	-215.09147	109.14552
8250.00000	108.88513	-216.87646	108.88513
8300.00000	108.66236	-218.21118	108.66236
8350.00000	108.44820	-219.11557	108.44820
8400.00000	108.21988	-221.01828	108.21988
8450.00000	107.94342	-222.15558	107.94342
8500.00000	107.73648	-223.46321	107.73648
8550.00000	107.52807	-223.97988	107.52807
8600.00000	107.37076	-225.18957	107.37076
8650.00000	107.16938	-226.19607	107.16938
8700.00000	107.00668	-227.61028	107.00668
8750.00000	106.79248	-227.50490	106.79248
8800.00000	106.68298	-229.01044	106.68298
8850.00000	106.53416	-230.27617	106.53416
8900.00000	106.42112	-231.37315	106.42112
8950.00000	106.33677	-232.99156	106.33677
9000.00000	106.20487	-234.48364	106.20487
9050.00000	106.21883	-236.30544	106.21883
9100.00000	106.19787	-237.56514	106.19787
9150.00000	106.20940	-238.65769	106.20940
9200.00000	106.32729	-239.90826	106.32729
9250.00000	106.31878	-240.88837	106.31878
9300.00000	106.38393	-241.96809	106.38393
9350.00000	106.38793	-242.65232	106.38793
9400.00000	106.27375	-243.25613	106.27375
9450.00000	106.23559	-244.40590	106.23559
9500.00000	106.16481	-245.85168	106.16481
9550.00000	106.04203	-247.57378	106.04203
9600.00000	106.05481	-249.92078	106.05481
9650.00000	106.05086	-252.69260	106.05086
9700.00000	106.11912	-254.59311	106.11912
9750.00000	106.28831	-257.79874	106.28831
9800.00000	106.43317	-259.15685	106.43317
9850.00000	106.63723	-260.49845	106.63723
9900.00000	106.62051	-261.94955	106.62051
9950.00000	106.71450	-262.86404	106.71450
10000.00000	106.61240	-264.52300	106.61240
10050.00000	106.42352	-265.61706	106.42352
10100.00000	106.28222	-267.25403	106.28222
10150.00000	106.02078	-270.35361	106.02078
10200.00000	105.89279	-273.53483	105.89279
10250.00000	105.81044	-277.29573	105.81044
10300.00000	105.92975	-280.84647	105.92975
10350.00000	106.04078	-283.83667	106.04078
10400.00000	106.12404	-286.58300	106.12404
10450.00000	106.32975	-289.08421	106.32975
10500.00000	106.40872	-291.21447	106.40872
10550.00000	106.36469	-292.99327	106.36469
10600.00000	106.18463	-294.79375	106.18463
10650.00000	105.96656	-296.72533	105.96656
10700.00000	105.74822	-300.63676	105.74822
10750.00000	105.58233	-304.35845	105.58233
10800.00000	105.41522	-307.85490	105.41522
10850.00000	105.32397	-312.46521	105.32397
10900.00000	105.28504	-315.38567	105.28504
10950.00000	105.21439	-317.44075	105.21439
11000.00000	105.11414	-319.29806	105.11414
11050.00000	104.76194	-321.09106	104.76194
11100.00000	104.38651	-323.65262	104.38651
11150.00000	103.81497	-325.78265	103.81497
11200.00000	103.40408	-328.18611	103.40408
11250.00000	102.95116	-331.27856	102.95116
11300.00000	102.63232	-334.80131	102.63232
11350.00000	102.42100	-337.21237	102.42100
11400.00000	102.10880	-339.24093	102.10880
11450.00000	101.88940	-341.03984	101.88940
11500.00000	101.68732	-340.74442	101.68732
11550.00000	101.28628	-340.73130	101.28628
11600.00000	100.99773	-342.11385	100.99773
11650.00000	100.54921	-342.30780	100.54921
11700.00000	100.29737	-344.06047	100.29737
11750.00000	100.07423	-346.28361	100.07423
11800.00000	99.96601	-348.20064	99.96601
11850.00000	99.98652	-348.28897	99.98652
11900.00000	99.81491	-349.48011	99.81491
11950.00000	99.68277	-349.25721	99.68277
12000.00000	99.42780	-348.91205	99.42780
12050.00000	99.05089	-349.02864	99.05089
12100.00000	98.78904	-351.16727	98.78904
12150.00000	98.45006	-353.04818	98.45006
12200.00000	98.34059	-355.65178	98.34059
12250.00000	98.21451	-357.22935	98.21451
12300.00000	99.28236	-359.21466	99.28236
12350.00000	98.05121	-359.87229	98.05121
12400.00000	97.83961	-359.34945	97.83961
12450.00000	97.50563	-359.05677	97.50563
12500.00000	97.03835	-359.74698	97.03835
12550.00000	96.69100	-360.88760	96.69100
12600.00000	96.27689	-363.26724	96.27689
12650.00000	96.25647	-364.43254	96.25647
12700.00000	96.09209	-365.37925	96.09209
12750.00000	96.01531	-366.16045	96.01531
12800.00000	95.76552	-365.36039	95.76552
12850.00000	95.13555	-363.89729	95.13555
12900.00000	94.86925	-364.00323	94.86925
12950.00000	94.64197	-364.42438	94.64197
13000.00000	94.37357	-366.03081	94.37357
13050.00000	94.42464	-365.88146	94.42464
13100.00000	94.35302	-366.90047	94.35302
13150.00000	94.38374	-366.97322	94.38374
13200.00000	94.27601	-363.58804	94.27601
13250.00000	94.04745	-362.10807	94.04745
13300.00000	93.61859	-359.12598	93.61859
13350.00000	93.19994	-358.17508	93.19994
13400.00000	93.09136	-359.08370	93.09136
13450.00000	92.82663	-358.91777	92.82663
13500.00000	93.08743	-358.25960	93.08743
13550.00000	93.00365	-357.41424	93.00365
13600.00000	93.09493	-354.33662	93.09493
13650.00000	93.24598	-352.31141	93.24598
13700.00000	93.03304	-350.35531	93.03304
13750.00000	92.81548	-348.22482	92.81548
13800.00000	92.61997	-348.33573	92.61997
13850.00000	92.80044	-349.58099	92.80044
13900.00000	92.93132	-348.44716	92.93132
13950.00000	93.16983	-347.74134	93.16983
14000.00000	93.64949	-344.97378	93.64949
14050.00000	93.90405	-343.20292	93.90405
14100.00000	93.86440	-340.99545	93.86440
14150.00000	94.03117	-340.11710	94.03117
14200.00000	94.39300	-339.10117	94.39300
14250.00000	95.08642	-337.51957	95.08642
14300.00000	95.52952	-336.74493	95.52952
14350.00000	95.92106	-334.57704	95.92106
14400.00000	95.78663	-334.01740	95.78663
14450.00000	95.99595	-332.61626	95.99595
14500.00000	96.30342	-333.45584	96.30342
14550.00000	96.88371	-333.17729	96.88371
14600.00000	97.44439	-334.25669	97.44439
14650.00000	98.31133	-331.24567	98.31133
14700.00000	98.72758	-334.43173	98.72758
14750.00000	99.24643	-333.17695	99.24643
14800.00000	99.56160	-332.85522	99.56160
14850.00000	100.05596	-333.67942	100.05596
14900.00000	100.60097	-335.33232	100.60097
14950.00000	101.09870	-337.21885	101.09870
15000.00000	101.56611	-339.35523	101.56611
15050.00000	101.91600	-340.19284	101.91600
15100.00000	102.52127	-341.65481	102.52127
15150.00000	103.28650	-344.21084	103.28650
15200.00000	103.75406	-343.94546	103.75406
15250.00000	104.05239	-345.68863	104.05239
15300.00000	104.58297	-347.93125	104.58297
15350.00000	104.89049	-351.49292	104.89049
15400.00000	105.28886	-353.34025	105.28886
15450.00000	105.79259	-356.82755	105.79259
15500.00000	106.39057	-359.48670	106.39057
15550.00000	106.86879	-362.90965	106.86879
15600.00000	107.23647	-366.18032	107.23647
15650.00000	107.80143	-368.02442	107.80143
15700.00000	108.08089	-372.14868	108.08089
15750.00000	108.48985	-374.63966	108.48985
15800.00000	108.74689	-377.22792	108.74689
15850.00000	108.93525	-380.86568	108.93525
15900.00000	109.17908	-385.48380	109.17908
15950.00000	109.53196	-389.19147	109.53196
16000.00000	109.80537	-392.31339	109.80537
16050.00000	110.08008	-395.35704	110.08008
16100.00000	110.08411	-399.37495	110.08411
16150.00000	110.23995	-403.09815	110.23995
16200.00000	110.44688	-407.02810	110.44688
16250.00000	110.62654	-409.71585	110.62654
16300.00000	110.88456	-412.93498	110.88456
16350.00000	110.93739	-416.24952	110.93739
16400.00000	111.05510	-419.36620	111.05510
16450.00000	111.19558	-422.18314	111.19558
16500.00000	111.23819	-425.04451	111.23819
16550.00000	111.38387	-428.62274	111.38387
16600.00000	111.47796	-431.60468	111.47796
16650.00000	111.56210	-434.66951	111.56210
16700.00000	111.73968	-437.13263	111.73968
16750.00000	111.76351	-439.91825	111.76351
16800.00000	111.86468	-442.88246	111.86468
16850.00000	112.02038	-445.66669	112.02038
16900.00000	112.13358	-448.58995	112.13358
16950.00000	112.29144	-451.28504	112.29144
17000.00000	112.24085	-453.94521	112.24085
17050.00000	112.41185	-456.14259	112.41185
17100.00000	112.48212	-457.86730	112.48212
17150.00000	112.74483	-461.47334	112.74483
17200.00000	112.87541	-463.79778	112.87541
17250.00000	112.92510	-466.89713	112.92510
17300.00000	113.10346	-469.64493	113.10346
17350.00000	113.12961	-472.30478	113.12961
17400.00000	113.36481	-475.21686	113.36481
17450.00000	113.43004	-478.41533	113.43004
17500.00000	113.57590	-481.15556	113.57590
17550.00000	113.69550	-484.32574	113.69550
17600.00000	113.93770	-487.01044	113.93770
17650.00000	114.05055	-490.76707	114.05055
17700.00000	114.11612	-494.18798	114.11612
17750.00000	114.34986	-496.51230	114.34986
17800.00000	114.33403	-500.46633	114.33403
17850.00000	114.46684	-503.31087	114.46684
17900.00000	114.52719	-506.69763	114.52719
17950.00000	114.66786	-510.30541	114.66786
18000.00000	114.73057	-514.19707	114.73057
18050.00000	114.93405	-517.11565	114.93405
18100.00000	114.90632	-521.10467	114.90632
18150.00000	114.92588	-523.94153	114.92588
18200.00000	114.88882	-527.95832	114.88882
18250.00000	115.00673	-530.74358	115.00673
18300.00000	115.05795	-534.23905	115.05795
18350.00000	115.06780	-537.40834	115.06780
18400.00000	115.02126	-541.17456	115.02126
18450.00000	114.97936	-545.70291	114.97936
18500.00000	114.99694	-548.90970	114.99694
18550.00000	114.97198	-551.64925	114.97198
18600.00000	115.02211	-555.47585	115.02211
18650.00000	114.86568	-558.47021	114.86568
18700.00000	114.82242	-562.23343	114.82242
18750.00000	114.83558	-565.53785	114.83558
18800.00000	114.91291	-568.27270	114.91291
18850.00000	114.74727	-571.73807	114.74727
18900.00000	114.65338	-575.01863	114.65338
18950.00000	114.64696	-578.72027	114.64696
19000.00000	114.46196	-581.67177	114.46196
19050.00000	114.53851	-585.01805	114.53851
19100.00000	114.40172	-588.03695	114.40172
19150.00000	114.45678	-591.08474	114.45678
19200.00000	114.32949	-594.04920	114.32949
19250.00000	114.23998	-598.40165	114.23998
19300.00000	114.08419	-600.95688	114.08419
19350.00000	114.00706	-604.18556	114.00706
19400.00000	113.85655	-607.14973	113.85655
19450.00000	113.83675	-609.88084	113.83675
19500.00000	113.64391	-613.91585	113.64391
19550.00000	113.54763	-616.75551	113.54763
19600.00000	113.49462	-620.34202	113.49462
19650.00000	113.29575	-622.88049	113.29575
19700.00000	113.04930	-626.07716	113.04930
19750.00000	112.90005	-628.55591	112.90005
19800.00000	112.84395	-632.38506	112.84395
19850.00000	112.72163	-634.83696	112.72163
19900.00000	112.48935	-638.49806	112.48935
19950.00000	112.29919	-641.24996	112.29919
20000.00000	112.13134	-644.12547	112.13134
20050.00000	111.97143	-646.91806	111.97143
20100.00000	111.71487	-649.58885	111.71487
20150.00000	111.55738	-651.55953	111.55738
20200.00000	111.31357	-654.91488	111.31357
20250.00000	111.05646	-657.37256	111.05646
20300.00000	110.77326	-659.82923	110.77326
20350.00000	110.61381	-662.34389	110.61381
20400.00000	110.32306	-663.81123	110.32306
20450.00000	109.99568	-666.05915	109.99568
20500.00000	109.82772	-668.42123	109.82772
20550.00000	109.35784	-669.56436	109.35784
20600.00000	109.20339	-671.06531	109.20339
20650.00000	108.96714	-672.56929	108.96714
20700.00000	108.65339	-673.87923	108.65339
20750.00000	108.49840	-674.93796	108.49840
20800.00000	108.24945	-675.46739	108.24945
20850.00000	108.11384	-676.36903	108.11384
20900.00000	107.86887	-676.99229	107.86887
20950.00000	107.70851	-677.11466	107.70851
21000.00000	107.60547	-677.37358	107.60547
21050.00000	107.66888	-677.27264	107.66888
21100.00000	107.61200	-677.29776	107.61200
21150.00000	107.69049	-677.80090	107.69049
21200.00000	107.77765	-678.01775	107.77765
21250.00000	107.86390	-679.75997	107.86390
21300.00000	108.02293	-679.91086	108.02293
21350.00000	108.12421	-680.76621	108.12421
21400.00000	108.21468	-682.42964	108.21468
21450.00000	108.35648	-684.03567	108.35648
21500.00000	108.51526	-685.98826	108.51526
21550.00000	108.52667	-687.27695	108.52667
21600.00000	108.68756	-689.29071	108.68756
21650.00000	108.71467	-691.57727	108.71467
21700.00000	108.81479	-693.18691	108.81479
21750.00000	108.89075	-695.11020	108.89075
21800.00000	108.93547	-697.09676	108.93547
21850.00000	108.89570	-699.14589	108.89570
21900.00000	108.98774	-701.34936	108.98774
21950.00000	108.99685	-703.10147	108.99685
22000.00000	109.08355	-704.95574	109.08355
22050.00000	109.03300	-706.55738	109.03300
22100.00000	109.03242	-708.91893	109.03242
22150.00000	109.04510	-710.68630	109.04510
22200.00000	109.12769	-712.48379	109.12769
22250.00000	109.05780	-713.88784	109.05780
22300.00000	108.93011	-715.82687	108.93011
22350.00000	109.05172	-717.90303	109.05172
22400.00000	109.07226	-719.81572	109.07226
22450.00000	109.01077	-721.19895	109.01077
22500.00000	108.95274	-721.62320	108.95274
22550.00000	108.91305	-723.90028	108.91305
22600.00000	108.91908	-726.30898	108.91908
