---ACOUSTIC CALIBRATION---
Filename: C:\Data\AZH DATA\AZH51\RightSecondary.calib
Date: 8/27/2019 6:15:30 PM
Format: 4
Probe Tube Correction File: C:\Data\Probe Tube Calibrations\50_ProbeTube.calib
Experiment VIs: 850
EPL_CFTS.exe V12.0.1 (2012)
DAQmx V9.6

Attenuation (dB): 40.000000
Min Freq (Hz): 50.000000
Max Freq (Hz): 49950.000000
Freq Step (Hz): 50.000000
Sample Rate (Hz): 100000.000000
[Smoothing]
Method=None
MA.Iterations=0
MA.Length=0
Loess.Length=0
Loess.Type=Linear
Loess.Robust=FALSE


Freq(Hz)	Mag(dB)	Phase(deg)	Unsmoothed(dB)

50.00000	107.46493	494.96900	107.46493
100.00000	90.05838	363.47836	90.05838
150.00000	85.95919	302.06704	85.95919
200.00000	72.78523	295.95149	72.78523
250.00000	86.86202	377.71391	86.86202
300.00000	87.87072	331.37758	87.87072
350.00000	64.88180	432.09101	64.88180
400.00000	80.99866	344.01521	80.99866
450.00000	86.87411	325.06404	86.87411
500.00000	86.48903	319.27167	86.48903
550.00000	90.05437	306.05266	90.05437
600.00000	91.73925	297.02076	91.73925
650.00000	90.43923	301.40884	90.43923
700.00000	94.72288	298.82188	94.72288
750.00000	95.87682	279.02890	95.87682
800.00000	98.05555	278.93594	98.05555
850.00000	100.40259	273.16720	100.40259
900.00000	101.89387	254.32813	101.89387
950.00000	102.89799	238.14743	102.89799
1000.00000	102.84581	220.62163	102.84581
1050.00000	102.26368	209.42945	102.26368
1100.00000	102.19544	199.13272	102.19544
1150.00000	101.32330	189.10645	101.32330
1200.00000	100.95581	185.12283	100.95581
1250.00000	100.82500	175.01094	100.82500
1300.00000	99.68898	169.47754	99.68898
1350.00000	99.10879	165.62647	99.10879
1400.00000	98.16497	165.40342	98.16497
1450.00000	98.06140	167.43345	98.06140
1500.00000	98.25792	165.60459	98.25792
1550.00000	98.14479	162.27144	98.14479
1600.00000	98.55575	164.74835	98.55575
1650.00000	99.79746	149.26268	99.79746
1700.00000	98.41715	148.98629	98.41715
1750.00000	97.94742	138.88333	97.94742
1800.00000	97.77543	142.97354	97.77543
1850.00000	97.29666	142.58844	97.29666
1900.00000	98.77809	151.46834	98.77809
1950.00000	99.23756	140.53724	99.23756
2000.00000	99.26613	130.04285	99.26613
2050.00000	97.52107	125.38641	97.52107
2100.00000	98.11543	125.83372	98.11543
2150.00000	97.66121	122.60181	97.66121
2200.00000	97.32935	117.59159	97.32935
2250.00000	95.99818	112.26334	95.99818
2300.00000	96.29618	119.01111	96.29618
2350.00000	95.33044	114.08386	95.33044
2400.00000	94.59139	120.33748	94.59139
2450.00000	95.39652	114.29577	95.39652
2500.00000	95.05607	116.76960	95.05607
2550.00000	94.68852	120.32255	94.68852
2600.00000	93.48041	118.70578	93.48041
2650.00000	94.49732	132.68824	94.49732
2700.00000	96.77435	135.60545	96.77435
2750.00000	98.63508	130.66996	98.63508
2800.00000	99.27749	118.67952	99.27749
2850.00000	98.62723	110.83857	98.62723
2900.00000	98.45946	106.05022	98.45946
2950.00000	98.14666	99.11703	98.14666
3000.00000	97.57468	99.00825	97.57468
3050.00000	97.10907	93.13937	97.10907
3100.00000	97.40333	94.36057	97.40333
3150.00000	96.84430	86.48209	96.84430
3200.00000	95.86787	86.67471	95.86787
3250.00000	95.09063	86.21728	95.09063
3300.00000	94.19045	83.10146	94.19045
3350.00000	93.57930	87.62851	93.57930
3400.00000	91.49626	92.98608	91.49626
3450.00000	91.63398	107.30484	91.63398
3500.00000	92.84118	117.38112	92.84118
3550.00000	92.71006	112.77493	92.71006
3600.00000	93.71857	125.36314	93.71857
3650.00000	93.61169	121.85424	93.61169
3700.00000	93.13932	131.61703	93.13932
3750.00000	94.58306	142.41956	94.58306
3800.00000	95.59471	147.15805	95.59471
3850.00000	97.63872	154.49906	97.63872
3900.00000	99.53944	156.24574	99.53944
3950.00000	101.69982	151.48322	101.69982
4000.00000	102.80737	145.38026	102.80737
4050.00000	103.96742	141.80014	103.96742
4100.00000	104.89422	139.06420	104.89422
4150.00000	105.95761	134.30067	105.95761
4200.00000	106.62671	130.56550	106.62671
4250.00000	107.35879	126.78355	107.35879
4300.00000	108.21822	124.44778	108.21822
4350.00000	108.91763	121.48800	108.91763
4400.00000	109.93334	119.15358	109.93334
4450.00000	111.17974	116.71049	111.17974
4500.00000	112.44123	112.51818	112.44123
4550.00000	113.90517	107.20417	113.90517
4600.00000	115.25759	100.55953	115.25759
4650.00000	116.65223	92.31328	116.65223
4700.00000	118.01277	81.81140	118.01277
4750.00000	119.16456	69.29404	119.16456
4800.00000	120.02283	54.96908	120.02283
4850.00000	120.41489	39.35528	120.41489
4900.00000	120.31599	23.70392	120.31599
4950.00000	119.69418	 8.98865	119.69418
5000.00000	118.66322	-2.72378	118.66322
5050.00000	117.53203	-10.56504	117.53203
5100.00000	116.26119	-20.53392	116.26119
5150.00000	113.72426	-21.96603	113.72426
5200.00000	112.90671	-3.42663	112.90671
5250.00000	115.93696	 0.66832	115.93696
5300.00000	117.46403	-12.71676	117.46403
5350.00000	117.69474	-25.60808	117.69474
5400.00000	117.42941	-36.38211	117.42941
5450.00000	116.98294	-44.79050	116.98294
5500.00000	116.48004	-51.98658	116.48004
5550.00000	116.01635	-58.14398	116.01635
5600.00000	115.51441	-64.11327	115.51441
5650.00000	115.07889	-68.93312	115.07889
5700.00000	114.59516	-74.03044	114.59516
5750.00000	114.18917	-78.60039	114.18917
5800.00000	113.76044	-83.07327	113.76044
5850.00000	113.35597	-87.46314	113.35597
5900.00000	112.96076	-90.74764	112.96076
5950.00000	112.54633	-94.54356	112.54633
6000.00000	112.21451	-98.12440	112.21451
6050.00000	111.93223	-102.29895	111.93223
6100.00000	111.56111	-105.15343	111.56111
6150.00000	111.18589	-108.62800	111.18589
6200.00000	110.76517	-112.01303	110.76517
6250.00000	110.50201	-114.98162	110.50201
6300.00000	110.23353	-118.55881	110.23353
6350.00000	109.92284	-121.46056	109.92284
6400.00000	109.53211	-123.92253	109.53211
6450.00000	109.12383	-126.65101	109.12383
6500.00000	108.80697	-130.34605	108.80697
6550.00000	108.53622	-132.92930	108.53622
6600.00000	108.19334	-135.36035	108.19334
6650.00000	107.89892	-137.43652	107.89892
6700.00000	107.60896	-139.61720	107.60896
6750.00000	107.24787	-142.13428	107.24787
6800.00000	106.92553	-143.71431	106.92553
6850.00000	106.67694	-146.07190	106.67694
6900.00000	106.37219	-148.20670	106.37219
6950.00000	106.08907	-149.60770	106.08907
7000.00000	105.88130	-150.74287	105.88130
7050.00000	105.55590	-152.60239	105.55590
7100.00000	105.38521	-153.98458	105.38521
7150.00000	105.20913	-155.49726	105.20913
7200.00000	104.99223	-156.31030	104.99223
7250.00000	104.73317	-157.82248	104.73317
7300.00000	104.57129	-159.26728	104.57129
7350.00000	104.52580	-159.28961	104.52580
7400.00000	104.29086	-160.99962	104.29086
7450.00000	104.39448	-161.17734	104.39448
7500.00000	104.46314	-162.67803	104.46314
7550.00000	104.53984	-163.75430	104.53984
7600.00000	104.53503	-164.97759	104.53503
7650.00000	104.43317	-166.13443	104.43317
7700.00000	104.68548	-168.30200	104.68548
7750.00000	104.94252	-169.18518	104.94252
7800.00000	104.89422	-172.14876	104.89422
7850.00000	105.10949	-174.66278	105.10949
7900.00000	105.18389	-177.07288	105.18389
7950.00000	105.33356	-179.99648	105.33356
8000.00000	105.47298	-183.09812	105.47298
8050.00000	105.54536	-186.33256	105.54536
8100.00000	105.66672	-189.26446	105.66672
8150.00000	105.68000	-192.84624	105.68000
8200.00000	105.60763	-196.16216	105.60763
8250.00000	105.62322	-199.53359	105.62322
8300.00000	105.64605	-203.71604	105.64605
8350.00000	105.61681	-206.79408	105.61681
8400.00000	105.51139	-210.85639	105.51139
8450.00000	105.28727	-215.29012	105.28727
8500.00000	105.11565	-219.11192	105.11565
8550.00000	104.98286	-221.91534	104.98286
8600.00000	104.84102	-225.60829	104.84102
8650.00000	104.52409	-229.33780	104.52409
8700.00000	104.27743	-233.13469	104.27743
8750.00000	103.97262	-235.80576	103.97262
8800.00000	103.83684	-239.02154	103.83684
8850.00000	103.51286	-242.29417	103.51286
8900.00000	103.30877	-244.73405	103.30877
8950.00000	103.02078	-248.62410	103.02078
9000.00000	102.73291	-251.67131	102.73291
9050.00000	102.48513	-254.20717	102.48513
9100.00000	102.30030	-256.27418	102.30030
9150.00000	102.01020	-259.51436	102.01020
9200.00000	101.92887	-261.64668	101.92887
9250.00000	101.57316	-263.85629	101.57316
9300.00000	101.36466	-266.13386	101.36466
9350.00000	101.28527	-268.50152	101.28527
9400.00000	101.01076	-269.80185	101.01076
9450.00000	100.83288	-271.84738	100.83288
9500.00000	100.55422	-273.99421	100.55422
9550.00000	100.49692	-275.76022	100.49692
9600.00000	100.35440	-277.34770	100.35440
9650.00000	100.19907	-279.89623	100.19907
9700.00000	100.08506	-281.03553	100.08506
9750.00000	99.98157	-283.97943	99.98157
9800.00000	99.67683	-285.52946	99.67683
9850.00000	99.56432	-286.41580	99.56432
9900.00000	99.26907	-288.57631	99.26907
9950.00000	99.11516	-290.17218	99.11516
10000.00000	98.85867	-292.22799	98.85867
10050.00000	98.60143	-294.26800	98.60143
10100.00000	98.42898	-296.61113	98.42898
10150.00000	98.07641	-298.63096	98.07641
10200.00000	97.84346	-300.37134	97.84346
10250.00000	97.69194	-303.20231	97.69194
10300.00000	97.63169	-305.63551	97.63169
10350.00000	97.45112	-307.34973	97.45112
10400.00000	97.15837	-308.96895	97.15837
10450.00000	97.18560	-310.73849	97.18560
10500.00000	97.15307	-312.50427	97.15307
10550.00000	97.00020	-314.57426	97.00020
10600.00000	96.88469	-316.40855	96.88469
10650.00000	96.70576	-317.80589	96.70576
10700.00000	96.53429	-320.43239	96.53429
10750.00000	96.48879	-322.48730	96.48879
10800.00000	96.29427	-325.31494	96.29427
10850.00000	96.18177	-327.97856	96.18177
10900.00000	96.03425	-330.16886	96.03425
10950.00000	95.92119	-331.61349	95.92119
11000.00000	95.76926	-333.72567	95.76926
11050.00000	95.38963	-335.32235	95.38963
11100.00000	95.25601	-338.61622	95.25601
11150.00000	94.84729	-340.37963	94.84729
11200.00000	94.73295	-342.31461	94.73295
11250.00000	94.36206	-345.25834	94.36206
11300.00000	93.98999	-347.09333	93.98999
11350.00000	93.70966	-348.91471	93.70966
11400.00000	93.29861	-349.63256	93.29861
11450.00000	93.09550	-353.33665	93.09550
11500.00000	92.77619	-353.07103	92.77619
11550.00000	92.48753	-353.08279	92.48753
11600.00000	92.29289	-355.79413	92.29289
11650.00000	91.95970	-355.79720	91.95970
11700.00000	91.77699	-356.55238	91.77699
11750.00000	91.60942	-357.62538	91.60942
11800.00000	91.49660	-358.87428	91.49660
11850.00000	91.42477	-359.31486	91.42477
11900.00000	91.08455	-360.49313	91.08455
11950.00000	90.92573	-361.25911	90.92573
12000.00000	90.72994	-361.03238	90.72994
12050.00000	90.59805	-362.72758	90.59805
12100.00000	90.40410	-364.27013	90.40410
12150.00000	90.43597	-366.67356	90.43597
12200.00000	90.16420	-367.66982	90.16420
12250.00000	90.08467	-368.73596	90.08467
12300.00000	91.09322	-369.14041	91.09322
12350.00000	89.79294	-372.59795	89.79294
12400.00000	89.48581	-372.21667	89.48581
12450.00000	89.53262	-373.50642	89.53262
12500.00000	89.06958	-372.84719	89.06958
12550.00000	88.79083	-374.30373	88.79083
12600.00000	88.68594	-375.24855	88.68594
12650.00000	88.03145	-375.45202	88.03145
12700.00000	88.35352	-378.05912	88.35352
12750.00000	88.36302	-377.21966	88.36302
12800.00000	87.89258	-379.28782	87.89258
12850.00000	87.50136	-377.24213	87.50136
12900.00000	87.41211	-377.99081	87.41211
12950.00000	87.07685	-379.68845	87.07685
13000.00000	87.04322	-379.10556	87.04322
13050.00000	86.84832	-381.78312	86.84832
13100.00000	86.89899	-381.76712	86.89899
13150.00000	86.72958	-381.61971	86.72958
13200.00000	86.63182	-378.75303	86.63182
13250.00000	87.03319	-383.16630	87.03319
13300.00000	86.31674	-377.02902	86.31674
13350.00000	86.40947	-380.72816	86.40947
13400.00000	86.07818	-383.25881	86.07818
13450.00000	86.32820	-382.97787	86.32820
13500.00000	86.11684	-385.26488	86.11684
13550.00000	85.85804	-382.46589	85.85804
13600.00000	85.45417	-380.40240	85.45417
13650.00000	85.49030	-382.58079	85.49030
13700.00000	85.58029	-379.05909	85.58029
13750.00000	85.01058	-381.09767	85.01058
13800.00000	85.15592	-381.74006	85.15592
13850.00000	84.85874	-383.51761	84.85874
13900.00000	84.45741	-381.79602	84.45741
13950.00000	84.85365	-382.08788	84.85365
14000.00000	85.57889	-380.36209	85.57889
14050.00000	85.15228	-379.84042	85.15228
14100.00000	84.70438	-375.18934	84.70438
14150.00000	85.43331	-378.21410	85.43331
14200.00000	85.69057	-377.16121	85.69057
14250.00000	85.86828	-373.18624	85.86828
14300.00000	85.94965	-375.06951	85.94965
14350.00000	86.20547	-374.98598	86.20547
14400.00000	85.74604	-373.62038	85.74604
14450.00000	86.05450	-372.39300	86.05450
14500.00000	85.96522	-374.92286	85.96522
14550.00000	86.57698	-375.74847	86.57698
14600.00000	86.52539	-373.84115	86.52539
14650.00000	86.74687	-372.11080	86.74687
14700.00000	86.97368	-376.77368	86.97368
14750.00000	87.51243	-378.57835	87.51243
14800.00000	87.45285	-376.39230	87.45285
14850.00000	87.93262	-376.25594	87.93262
14900.00000	88.36562	-377.03250	88.36562
14950.00000	88.55575	-377.53340	88.55575
15000.00000	88.99594	-380.13615	88.99594
15050.00000	89.06083	-378.05524	89.06083
15100.00000	89.13139	-377.81765	89.13139
15150.00000	89.41379	-380.41756	89.41379
15200.00000	89.56488	-380.58569	89.56488
15250.00000	89.51203	-380.23739	89.51203
15300.00000	90.13803	-382.47660	90.13803
15350.00000	90.15017	-381.78596	90.15017
15400.00000	90.45055	-382.43312	90.45055
15450.00000	90.88642	-383.68976	90.88642
15500.00000	91.26252	-385.46248	91.26252
15550.00000	91.41846	-385.67739	91.41846
15600.00000	91.81309	-388.30571	91.81309
15650.00000	92.28789	-387.36247	92.28789
15700.00000	92.32512	-389.15794	92.32512
15750.00000	92.83475	-390.22466	92.83475
15800.00000	93.09079	-391.53464	93.09079
15850.00000	93.43544	-392.88260	93.43544
15900.00000	93.59992	-395.52295	93.59992
15950.00000	94.05323	-397.10346	94.05323
16000.00000	94.38751	-398.59752	94.38751
16050.00000	94.67010	-400.11254	94.67010
16100.00000	94.86497	-402.84412	94.86497
16150.00000	95.15149	-405.07453	95.15149
16200.00000	95.38072	-407.51521	95.38072
16250.00000	95.62775	-408.89234	95.62775
16300.00000	95.94948	-410.74447	95.94948
16350.00000	96.18440	-413.27857	96.18440
16400.00000	96.46137	-415.01557	96.46137
16450.00000	96.61710	-417.96659	96.61710
16500.00000	96.88340	-419.64019	96.88340
16550.00000	97.18855	-422.74166	97.18855
16600.00000	97.36986	-424.07715	97.36986
16650.00000	97.62982	-426.84278	97.62982
16700.00000	97.93178	-428.38103	97.93178
16750.00000	98.02586	-431.29257	98.02586
16800.00000	98.29255	-433.60734	98.29255
16850.00000	98.51783	-435.50267	98.51783
16900.00000	98.82053	-437.95040	98.82053
16950.00000	99.00797	-440.02025	99.00797
17000.00000	99.14918	-442.70749	99.14918
17050.00000	99.32442	-444.31305	99.32442
17100.00000	99.57032	-445.82021	99.57032
17150.00000	99.88941	-448.95607	99.88941
17200.00000	100.11839	-451.38505	100.11839
17250.00000	100.31730	-454.42602	100.31730
17300.00000	100.59498	-456.68188	100.59498
17350.00000	100.70657	-459.10923	100.70657
17400.00000	101.00718	-461.91371	101.00718
17450.00000	101.19631	-465.10791	101.19631
17500.00000	101.43322	-467.74426	101.43322
17550.00000	101.63413	-470.51261	101.63413
17600.00000	101.91337	-473.03213	101.91337
17650.00000	102.03818	-476.75148	102.03818
17700.00000	102.17214	-479.64707	102.17214
17750.00000	102.48728	-482.08829	102.48728
17800.00000	102.58414	-485.84300	102.58414
17850.00000	102.73943	-488.34844	102.73943
17900.00000	102.88740	-491.63272	102.88740
17950.00000	103.10955	-495.21300	103.10955
18000.00000	103.23700	-498.38315	103.23700
18050.00000	103.51524	-501.24403	103.51524
18100.00000	103.59834	-504.82440	103.59834
18150.00000	103.69715	-507.73187	103.69715
18200.00000	103.75493	-511.38502	103.75493
18250.00000	103.97514	-514.11472	103.97514
18300.00000	104.12680	-517.58235	104.12680
18350.00000	104.27431	-520.72652	104.27431
18400.00000	104.30869	-524.68781	104.30869
18450.00000	104.35584	-529.32046	104.35584
18500.00000	104.49301	-532.84124	104.49301
18550.00000	104.52026	-535.62196	104.52026
18600.00000	104.67130	-539.90101	104.67130
18650.00000	104.57150	-543.08852	104.57150
18700.00000	104.58949	-546.91242	104.58949
18750.00000	104.63564	-550.55058	104.63564
18800.00000	104.74870	-553.69333	104.74870
18850.00000	104.59535	-557.52515	104.59535
18900.00000	104.56870	-560.77552	104.56870
18950.00000	104.54657	-564.75723	104.54657
19000.00000	104.35839	-567.66850	104.35839
19050.00000	104.43632	-571.26602	104.43632
19100.00000	104.31847	-574.26185	104.31847
19150.00000	104.43959	-577.30662	104.43959
19200.00000	104.32900	-580.00504	104.32900
19250.00000	104.22371	-584.42122	104.22371
19300.00000	104.11041	-586.65454	104.11041
19350.00000	104.06931	-589.87247	104.06931
19400.00000	103.97815	-592.73947	103.97815
19450.00000	103.99710	-594.97471	103.99710
19500.00000	103.86257	-598.95185	103.86257
19550.00000	103.82925	-601.80689	103.82925
19600.00000	103.82327	-605.33591	103.82327
19650.00000	103.71167	-607.93365	103.71167
19700.00000	103.55601	-611.06326	103.55601
19750.00000	103.47670	-613.46410	103.47670
19800.00000	103.47081	-617.32354	103.47081
19850.00000	103.40660	-620.15002	103.40660
19900.00000	103.27359	-623.87795	103.27359
19950.00000	103.16393	-626.67834	103.16393
20000.00000	103.06444	-629.68146	103.06444
20050.00000	102.94262	-632.56379	102.94262
20100.00000	102.75609	-635.67316	102.75609
20150.00000	102.70289	-637.84227	102.70289
20200.00000	102.49418	-641.41518	102.49418
20250.00000	102.28644	-644.16677	102.28644
20300.00000	102.04743	-646.99175	102.04743
20350.00000	101.98586	-649.98776	101.98586
20400.00000	101.69635	-651.85545	101.69635
20450.00000	101.45972	-654.22898	101.45972
20500.00000	101.29808	-656.97284	101.29808
20550.00000	100.85037	-658.35994	100.85037
20600.00000	100.72276	-660.19107	100.72276
20650.00000	100.52009	-662.08833	100.52009
20700.00000	100.23840	-663.64009	100.23840
20750.00000	100.09765	-665.04491	100.09765
20800.00000	99.84801	-666.12848	99.84801
20850.00000	99.74568	-667.29810	99.74568
20900.00000	99.53180	-668.19470	99.53180
20950.00000	99.40259	-668.22980	99.40259
21000.00000	99.27074	-668.98170	99.27074
21050.00000	99.33957	-669.31059	99.33957
21100.00000	99.30571	-669.73397	99.30571
21150.00000	99.39334	-670.42573	99.39334
21200.00000	99.47723	-670.88654	99.47723
21250.00000	99.56656	-672.78025	99.56656
21300.00000	99.71154	-673.26392	99.71154
21350.00000	99.84307	-674.37258	99.84307
21400.00000	99.95637	-676.24976	99.95637
21450.00000	100.11886	-677.90329	100.11886
21500.00000	100.22678	-680.12749	100.22678
21550.00000	100.26067	-681.82470	100.26067
21600.00000	100.43554	-683.87447	100.43554
21650.00000	100.47966	-686.23140	100.47966
21700.00000	100.56087	-688.08116	100.56087
21750.00000	100.63534	-690.23374	100.63534
21800.00000	100.67534	-692.48229	100.67534
21850.00000	100.68744	-694.71517	100.68744
21900.00000	100.74367	-697.04074	100.74367
21950.00000	100.72717	-699.18927	100.72717
22000.00000	100.80665	-700.98706	100.80665
22050.00000	100.78757	-703.03193	100.78757
22100.00000	100.79912	-705.20574	100.79912
22150.00000	100.80598	-707.26616	100.80598
22200.00000	100.84083	-709.00271	100.84083
22250.00000	100.80598	-710.97933	100.80598
22300.00000	100.72477	-713.05703	100.72477
22350.00000	100.81793	-714.92293	100.81793
22400.00000	100.83389	-717.35370	100.83389
22450.00000	100.74223	-719.08295	100.74223
22500.00000	100.70323	-719.42094	100.70323
22550.00000	100.69584	-722.02229	100.69584
22600.00000	100.65135	-724.18876	100.65135
22650.00000	100.66472	-725.84421	100.66472
22700.00000	100.63770	-727.13857	100.63770
22750.00000	100.55856	-727.63848	100.55856
22800.00000	100.63749	-731.22190	100.63749
22850.00000	100.74138	-732.83108	100.74138
22900.00000	100.69825	-733.48108	100.69825
22950.00000	100.78944	-734.88758	100.78944
23000.00000	100.82377	-735.89716	100.82377
