---ACOUSTIC CALIBRATION---
Filename: C:\Data\AZH DATA\AZH72\RightSecondary.calib
Date: 8/27/2019 5:52:44 PM
Format: 4
Probe Tube Correction File: C:\Data\Probe Tube Calibrations\50_ProbeTube.calib
Experiment VIs: 850
EPL_CFTS.exe V12.0.1 (2012)
DAQmx V9.6

Attenuation (dB): 40.000000
Min Freq (Hz): 50.000000
Max Freq (Hz): 49950.000000
Freq Step (Hz): 50.000000
Sample Rate (Hz): 100000.000000
[Smoothing]
Method=None
MA.Iterations=0
MA.Length=0
Loess.Length=0
Loess.Type=Linear
Loess.Robust=FALSE


Freq(Hz)	Mag(dB)	Phase(deg)	Unsmoothed(dB)

50.00000	103.90553	310.03887	103.90553
100.00000	87.59289	208.74846	87.59289
150.00000	80.07569	111.63245	80.07569
200.00000	78.72035	100.41425	78.72035
250.00000	82.94207	54.31555	82.94207
300.00000	87.08717	-46.19482	87.08717
350.00000	83.73377	-26.16641	83.73377
400.00000	85.87196	-36.77310	85.87196
450.00000	85.51210	-64.72689	85.51210
500.00000	84.33247	-6.68467	84.33247
550.00000	88.40538	-29.70282	88.40538
600.00000	90.43009	-33.44045	90.43009
650.00000	93.55647	-31.65702	93.55647
700.00000	96.30477	-34.67931	96.30477
750.00000	97.38487	-42.13263	97.38487
800.00000	99.75159	-50.79158	99.75159
850.00000	102.73247	-62.97572	102.73247
900.00000	104.42630	-80.33440	104.42630
950.00000	105.58012	-96.99844	105.58012
1000.00000	105.53641	-114.36991	105.53641
1050.00000	105.06104	-123.19431	105.06104
1100.00000	105.22709	-134.34243	105.22709
1150.00000	104.46316	-144.36257	104.46316
1200.00000	104.21409	-146.24598	104.21409
1250.00000	104.40765	-157.01075	104.40765
1300.00000	103.41612	-164.36192	103.41612
1350.00000	102.75829	-168.57051	102.75829
1400.00000	102.33007	-169.80562	102.33007
1450.00000	102.12264	-168.53556	102.12264
1500.00000	101.77592	-169.84700	101.77592
1550.00000	102.38547	-171.70121	102.38547
1600.00000	103.41399	-172.43515	103.41399
1650.00000	104.00895	-182.64897	104.00895
1700.00000	102.82863	-185.51086	102.82863
1750.00000	102.84692	-188.65010	102.84692
1800.00000	102.44555	-190.55910	102.44555
1850.00000	102.45803	-189.27617	102.45803
1900.00000	103.50469	-187.78005	103.50469
1950.00000	104.27030	-195.72157	104.27030
2000.00000	104.08450	-204.51961	104.08450
2050.00000	103.19911	-207.89668	103.19911
2100.00000	103.53256	-209.30183	103.53256
2150.00000	102.98707	-213.71436	102.98707
2200.00000	102.43262	-216.98441	102.43262
2250.00000	101.64195	-218.68966	101.64195
2300.00000	101.68625	-216.88741	101.68625
2350.00000	101.47092	-216.44654	101.47092
2400.00000	101.51756	-217.59245	101.51756
2450.00000	101.41055	-219.09046	101.41055
2500.00000	101.03221	-219.50160	101.03221
2550.00000	100.61480	-216.29049	100.61480
2600.00000	100.58487	-209.99798	100.58487
2650.00000	101.51455	-203.36103	101.51455
2700.00000	103.16493	-201.55808	103.16493
2750.00000	104.84696	-208.80683	104.84696
2800.00000	105.46456	-218.68264	105.46456
2850.00000	105.54325	-227.24023	105.54325
2900.00000	105.12077	-233.61187	105.12077
2950.00000	104.88482	-237.62805	104.88482
3000.00000	104.56334	-241.42306	104.56334
3050.00000	104.15896	-244.96818	104.15896
3100.00000	103.99818	-247.84057	103.99818
3150.00000	103.52018	-252.53904	103.52018
3200.00000	102.74328	-254.90223	102.74328
3250.00000	102.06802	-256.90571	102.06802
3300.00000	101.18823	-258.16446	101.18823
3350.00000	99.85653	-256.46120	99.85653
3400.00000	98.99601	-247.08291	98.99601
3450.00000	98.85771	-236.73720	98.85771
3500.00000	99.21327	-230.59438	99.21327
3550.00000	100.06605	-225.99841	100.06605
3600.00000	100.68302	-223.33289	100.68302
3650.00000	100.77203	-222.84525	100.77203
3700.00000	100.38010	-217.27970	100.38010
3750.00000	100.75034	-205.50172	100.75034
3800.00000	102.16489	-195.42123	102.16489
3850.00000	104.11709	-189.91057	104.11709
3900.00000	106.16478	-188.25301	106.16478
3950.00000	107.96944	-190.98918	107.96944
4000.00000	109.49377	-194.91290	109.49377
4050.00000	110.72400	-199.54699	110.72400
4100.00000	111.75316	-203.63636	111.75316
4150.00000	112.88095	-207.34835	112.88095
4200.00000	113.71961	-211.50712	113.71961
4250.00000	114.63481	-215.40752	114.63481
4300.00000	115.49183	-219.01705	115.49183
4350.00000	116.35076	-222.36089	116.35076
4400.00000	117.31706	-225.09856	117.31706
4450.00000	118.44826	-228.14812	118.44826
4500.00000	119.73351	-232.13417	119.73351
4550.00000	121.10527	-237.48911	121.10527
4600.00000	122.49044	-244.28174	122.49044
4650.00000	123.92444	-252.41047	123.92444
4700.00000	125.27399	-262.66960	125.27399
4750.00000	126.46716	-275.00335	126.46716
4800.00000	127.37500	-289.35409	127.37500
4850.00000	127.85606	-304.98620	127.85606
4900.00000	127.82649	-320.87471	127.82649
4950.00000	127.28407	-335.81810	127.28407
5000.00000	126.26510	-348.13402	126.26510
5050.00000	125.18901	-356.87479	125.18901
5100.00000	123.96283	-366.60692	123.96283
5150.00000	121.46109	-369.66294	121.46109
5200.00000	120.16857	-351.71511	120.16857
5250.00000	123.22370	-344.53063	123.22370
5300.00000	125.03354	-357.63138	125.03354
5350.00000	125.40125	-370.98169	125.40125
5400.00000	125.20849	-381.98649	125.20849
5450.00000	124.82627	-391.00082	124.82627
5500.00000	124.36381	-398.69696	124.36381
5550.00000	123.89862	-405.35052	123.89862
5600.00000	123.44804	-411.42703	123.44804
5650.00000	123.00599	-416.88106	123.00599
5700.00000	122.56259	-422.19363	122.56259
5750.00000	122.16166	-426.98156	122.16166
5800.00000	121.73312	-431.62552	121.73312
5850.00000	121.33115	-436.01549	121.33115
5900.00000	120.95547	-440.22159	120.95547
5950.00000	120.60716	-444.24331	120.60716
6000.00000	120.24629	-448.13533	120.24629
6050.00000	119.88383	-452.01782	119.88383
6100.00000	119.55448	-455.71472	119.55448
6150.00000	119.20064	-459.31275	119.20064
6200.00000	118.84374	-462.71967	118.84374
6250.00000	118.51872	-466.20137	118.51872
6300.00000	118.21765	-469.56398	118.21765
6350.00000	117.86224	-472.90725	117.86224
6400.00000	117.54577	-476.15990	117.54577
6450.00000	117.22940	-479.24549	117.22940
6500.00000	116.92024	-482.37391	116.92024
6550.00000	116.58403	-485.35228	116.58403
6600.00000	116.25444	-488.15051	116.25444
6650.00000	115.93391	-490.89864	115.93391
6700.00000	115.59645	-493.67825	115.59645
6750.00000	115.26033	-496.22086	115.26033
6800.00000	114.93885	-498.56238	114.93885
6850.00000	114.63181	-500.85278	114.63181
6900.00000	114.32537	-503.03385	114.32537
6950.00000	114.01443	-505.00799	114.01443
7000.00000	113.75676	-506.94916	113.75676
7050.00000	113.49618	-509.05345	113.49618
7100.00000	113.25325	-511.02750	113.25325
7150.00000	112.99118	-512.67143	112.99118
7200.00000	112.74746	-514.48069	112.74746
7250.00000	112.45652	-516.22145	112.45652
7300.00000	112.26210	-517.61939	112.26210
7350.00000	112.01518	-518.73214	112.01518
7400.00000	111.85090	-519.88545	111.85090
7450.00000	111.68233	-521.05101	111.68233
7500.00000	111.55870	-522.20897	111.55870
7550.00000	111.45397	-523.11684	111.45397
7600.00000	111.39799	-524.15104	111.39799
7650.00000	111.36450	-525.29005	111.36450
7700.00000	111.41111	-526.50644	111.41111
7750.00000	111.37554	-528.04076	111.37554
7800.00000	111.41649	-529.68419	111.41649
7850.00000	111.46491	-531.16887	111.46491
7900.00000	111.56136	-532.92992	111.56136
7950.00000	111.63338	-535.27189	111.63338
8000.00000	111.67735	-537.62635	111.67735
8050.00000	111.73916	-540.28724	111.73916
8100.00000	111.81431	-542.34987	111.81431
8150.00000	111.79934	-544.98115	111.79934
8200.00000	111.83385	-547.29208	111.83385
8250.00000	111.85978	-550.25850	111.85978
8300.00000	111.88982	-553.10335	111.88982
8350.00000	111.89073	-555.86217	111.89073
8400.00000	111.88350	-559.14675	111.88350
8450.00000	111.80555	-562.20839	111.80555
8500.00000	111.74306	-565.40965	111.74306
8550.00000	111.70417	-568.48903	111.70417
8600.00000	111.62576	-572.01625	111.62576
8650.00000	111.48499	-575.25491	111.48499
8700.00000	111.38545	-579.27336	111.38545
8750.00000	111.20372	-581.81129	111.20372
8800.00000	111.03292	-585.74001	111.03292
8850.00000	110.78612	-589.13581	110.78612
8900.00000	110.59882	-592.08105	110.59882
8950.00000	110.37674	-595.30628	110.37674
9000.00000	110.09979	-598.16914	110.09979
9050.00000	109.93024	-601.30309	109.93024
9100.00000	109.68179	-603.85749	109.68179
9150.00000	109.46461	-606.40264	109.46461
9200.00000	109.25342	-608.75709	109.25342
9250.00000	108.97459	-610.81310	108.97459
9300.00000	108.77452	-612.76959	108.77452
9350.00000	108.59749	-614.67791	108.59749
9400.00000	108.32041	-616.23634	108.32041
9450.00000	108.15573	-617.89451	108.15573
9500.00000	108.02726	-619.21620	108.02726
9550.00000	107.87409	-620.47316	107.87409
9600.00000	107.85790	-622.17791	107.85790
9650.00000	107.82575	-623.92676	107.82575
9700.00000	107.80753	-624.79445	107.80753
9750.00000	107.85615	-626.76947	107.85615
9800.00000	107.84042	-627.73297	107.84042
9850.00000	107.84778	-628.78337	107.84778
9900.00000	107.67588	-630.51964	107.67588
9950.00000	107.64805	-631.76051	107.64805
10000.00000	107.62176	-633.98146	107.62176
10050.00000	107.54980	-636.32135	107.54980
10100.00000	107.46467	-638.94826	107.46467
10150.00000	107.33936	-642.34658	107.33936
10200.00000	107.34360	-645.42460	107.34360
10250.00000	107.28578	-648.76542	107.28578
10300.00000	107.37134	-651.73816	107.37134
10350.00000	107.32229	-654.50964	107.32229
10400.00000	107.20169	-657.45631	107.20169
10450.00000	107.19026	-660.55370	107.19026
10500.00000	107.10277	-663.38517	107.10277
10550.00000	106.95109	-666.63328	106.95109
10600.00000	106.76336	-669.60832	106.76336
10650.00000	106.57974	-672.43898	106.57974
10700.00000	106.43390	-676.52205	106.43390
10750.00000	106.35930	-679.78807	106.35930
10800.00000	106.20912	-682.65122	106.20912
10850.00000	106.06048	-686.38307	106.06048
10900.00000	105.89561	-688.71728	105.89561
10950.00000	105.69641	-690.87345	105.69641
11000.00000	105.42449	-693.48334	105.42449
11050.00000	104.97417	-696.05038	104.97417
11100.00000	104.63065	-699.18653	104.63065
11150.00000	104.19761	-701.94126	104.19761
11200.00000	103.94012	-704.68039	103.94012
11250.00000	103.59219	-707.74780	103.59219
11300.00000	103.25988	-710.42520	103.25988
11350.00000	102.97802	-712.09580	102.97802
11400.00000	102.56795	-713.80218	102.56795
11450.00000	102.22252	-715.86813	102.22252
11500.00000	101.95707	-716.58693	101.95707
11550.00000	101.47909	-717.90717	101.47909
11600.00000	101.22659	-720.19289	101.22659
11650.00000	100.88054	-721.16949	100.88054
11700.00000	100.70057	-722.85165	100.70057
11750.00000	100.56382	-724.58663	100.56382
11800.00000	100.36512	-726.49619	100.36512
11850.00000	100.22582	-726.85991	100.22582
11900.00000	99.85132	-728.64376	99.85132
11950.00000	99.61456	-729.38908	99.61456
12000.00000	99.21453	-730.51758	99.21453
12050.00000	98.87663	-731.84255	98.87663
12100.00000	98.61437	-734.10192	98.61437
12150.00000	98.34593	-736.42140	98.34593
12200.00000	98.16555	-738.75240	98.16555
12250.00000	97.91677	-739.90892	97.91677
12300.00000	98.74955	-741.58756	98.74955
12350.00000	97.32772	-742.37129	97.32772
12400.00000	96.90277	-742.44675	96.90277
12450.00000	96.50394	-742.89857	96.50394
12500.00000	96.06808	-744.34041	96.06808
12550.00000	95.65799	-744.81000	95.65799
12600.00000	95.15725	-746.07045	95.15725
12650.00000	95.04617	-745.74117	95.04617
12700.00000	94.67140	-745.56704	94.67140
12750.00000	94.31381	-745.83490	94.31381
12800.00000	94.06613	-744.21914	94.06613
12850.00000	93.45150	-743.69716	93.45150
12900.00000	93.23272	-743.69873	93.23272
12950.00000	93.03967	-743.94676	93.03967
13000.00000	93.03677	-743.59887	93.03677
13050.00000	92.93307	-742.59339	92.93307
13100.00000	92.91068	-741.01295	92.91068
13150.00000	92.82275	-739.98143	92.82275
13200.00000	92.71446	-737.31918	92.71446
13250.00000	92.64213	-737.53388	92.64213
13300.00000	92.41988	-735.39314	92.41988
13350.00000	92.35753	-736.14294	92.35753
13400.00000	92.55019	-736.83583	92.55019
13450.00000	92.61176	-735.45079	92.61176
13500.00000	92.89221	-734.16702	92.89221
13550.00000	92.77117	-734.49932	92.77117
13600.00000	92.89679	-733.32256	92.89679
13650.00000	92.88935	-732.64071	92.88935
13700.00000	92.70467	-733.13355	92.70467
13750.00000	92.81520	-733.51026	92.81520
13800.00000	92.71439	-735.67556	92.71439
13850.00000	92.80356	-737.77248	92.80356
13900.00000	92.69460	-738.36882	92.69460
13950.00000	92.90735	-739.19949	92.90735
14000.00000	93.32058	-738.10925	93.32058
14050.00000	93.33253	-739.10371	93.33253
14100.00000	93.28902	-738.06343	93.28902
14150.00000	93.30336	-737.23799	93.30336
14200.00000	93.34203	-737.50959	93.34203
14250.00000	93.60880	-735.53286	93.60880
14300.00000	93.54426	-736.69255	93.54426
14350.00000	93.51122	-734.53384	93.51122
14400.00000	93.37761	-736.12810	93.37761
14450.00000	93.43068	-735.38199	93.43068
14500.00000	93.59650	-736.54061	93.59650
14550.00000	93.90635	-735.62958	93.90635
14600.00000	93.85469	-736.70534	93.85469
14650.00000	94.40453	-734.65821	94.40453
14700.00000	94.52281	-738.44657	94.52281
14750.00000	94.68577	-737.81138	94.68577
14800.00000	94.76431	-738.12262	94.76431
14850.00000	95.10320	-738.18575	95.10320
14900.00000	95.30952	-738.56415	95.30952
14950.00000	95.49385	-740.15182	95.49385
15000.00000	95.73743	-741.43384	95.73743
15050.00000	95.78068	-740.53469	95.78068
15100.00000	95.95040	-740.81585	95.95040
15150.00000	96.34768	-742.36812	96.34768
15200.00000	96.39639	-740.82999	96.39639
15250.00000	96.40874	-742.26165	96.40874
15300.00000	96.79278	-742.22450	96.79278
15350.00000	96.95908	-743.48753	96.95908
15400.00000	97.00228	-742.78135	97.00228
15450.00000	97.21414	-744.09298	97.21414
15500.00000	97.58105	-745.32661	97.58105
15550.00000	97.98695	-747.02115	97.98695
15600.00000	98.38786	-747.46022	98.38786
15650.00000	98.80110	-745.65227	98.80110
15700.00000	98.81189	-746.64602	98.81189
15750.00000	99.08341	-747.90391	99.08341
15800.00000	99.38752	-748.93479	99.38752
15850.00000	99.79179	-750.69529	99.79179
15900.00000	100.14449	-751.93947	100.14449
15950.00000	100.50664	-752.61762	100.50664
16000.00000	100.71912	-753.48633	100.71912
16050.00000	100.99741	-755.43834	100.99741
16100.00000	101.28461	-758.35063	101.28461
16150.00000	101.69438	-759.62575	101.69438
16200.00000	102.02457	-761.45489	102.02457
16250.00000	102.30750	-762.36036	102.30750
16300.00000	102.66075	-764.23729	102.66075
16350.00000	102.90240	-767.03397	102.90240
16400.00000	103.27676	-768.92795	103.27676
16450.00000	103.55577	-770.53507	103.55577
16500.00000	103.78091	-772.39547	103.78091
16550.00000	104.04202	-775.40262	104.04202
16600.00000	104.35163	-777.73507	104.35163
16650.00000	104.61178	-780.03714	104.61178
16700.00000	104.93522	-781.27249	104.93522
16750.00000	105.03293	-783.56403	105.03293
16800.00000	105.25683	-786.29110	105.25683
16850.00000	105.58174	-788.86032	105.58174
16900.00000	105.90029	-791.13581	105.90029
16950.00000	106.15538	-793.09201	106.15538
17000.00000	106.26046	-795.31346	106.26046
17050.00000	106.49279	-797.18517	106.49279
17100.00000	106.70165	-799.02633	106.70165
17150.00000	107.10827	-801.95662	107.10827
17200.00000	107.37194	-803.94835	107.37194
17250.00000	107.52600	-806.90226	107.52600
17300.00000	107.82174	-809.23967	107.82174
17350.00000	107.96261	-811.96808	107.96261
17400.00000	108.30582	-814.65349	108.30582
17450.00000	108.51454	-817.48231	108.51454
17500.00000	108.75362	-820.08276	108.75362
17550.00000	108.96935	-823.06640	108.96935
17600.00000	109.26326	-825.63376	109.26326
17650.00000	109.47141	-829.52650	109.47141
17700.00000	109.66536	-832.52423	109.66536
17750.00000	109.96340	-834.84708	109.96340
17800.00000	110.00961	-838.54877	110.00961
17850.00000	110.20009	-841.18930	110.20009
17900.00000	110.34630	-844.44573	110.34630
17950.00000	110.59441	-847.78183	110.59441
18000.00000	110.73494	-851.23609	110.73494
18050.00000	111.01040	-853.88188	111.01040
18100.00000	111.07194	-857.55940	111.07194
18150.00000	111.19797	-860.19081	111.19797
18200.00000	111.27414	-863.91040	111.27414
18250.00000	111.51041	-866.39258	111.51041
18300.00000	111.70215	-869.64882	111.70215
18350.00000	111.84002	-872.80533	111.84002
18400.00000	111.90525	-876.26514	111.90525
18450.00000	111.98447	-880.84874	111.98447
18500.00000	112.13663	-884.08688	112.13663
18550.00000	112.24468	-886.98872	112.24468
18600.00000	112.45084	-890.90395	112.45084
18650.00000	112.40339	-893.84278	112.40339
18700.00000	112.46038	-898.01070	112.46038
18750.00000	112.60698	-901.57388	112.60698
18800.00000	112.81115	-904.53495	112.81115
18850.00000	112.75955	-908.45889	112.75955
18900.00000	112.79487	-911.80566	112.79487
18950.00000	112.84712	-915.99405	112.84712
19000.00000	112.74609	-919.39285	112.74609
19050.00000	112.91026	-923.20633	112.91026
19100.00000	112.87734	-926.70514	112.87734
19150.00000	112.99244	-930.09184	112.99244
19200.00000	112.94404	-933.44308	112.94404
19250.00000	112.89881	-938.20871	112.89881
19300.00000	112.81753	-941.18260	112.81753
19350.00000	112.79896	-944.81906	112.79896
19400.00000	112.70425	-948.11081	112.70425
19450.00000	112.74263	-951.22859	112.74263
19500.00000	112.60893	-955.57187	112.60893
19550.00000	112.56431	-958.93979	112.56431
19600.00000	112.54997	-962.97945	112.54997
19650.00000	112.41267	-965.92395	112.41267
19700.00000	112.22024	-969.51669	112.22024
19750.00000	112.10154	-972.32927	112.10154
19800.00000	112.07810	-976.60755	112.07810
19850.00000	111.97116	-979.67082	111.97116
19900.00000	111.79853	-983.69896	111.79853
19950.00000	111.62818	-986.77948	111.62818
20000.00000	111.46926	-990.11449	111.46926
20050.00000	111.32114	-993.33489	111.32114
20100.00000	111.07070	-996.52981	111.07070
20150.00000	110.93921	-998.72102	110.93921
20200.00000	110.69722	-1002.46548	110.69722
20250.00000	110.45682	-1005.25866	110.45682
20300.00000	110.15819	-1007.96404	110.15819
20350.00000	110.02239	-1010.88631	110.02239
20400.00000	109.72732	-1012.64739	109.72732
20450.00000	109.40673	-1015.13857	109.40673
20500.00000	109.23439	-1017.68393	109.23439
20550.00000	108.77164	-1019.04301	108.77164
20600.00000	108.62111	-1020.70757	108.62111
20650.00000	108.38281	-1022.30716	108.38281
20700.00000	108.08995	-1023.74810	108.08995
20750.00000	107.93665	-1024.99917	107.93665
20800.00000	107.70153	-1025.69006	107.70153
20850.00000	107.57660	-1026.70798	107.57660
20900.00000	107.36163	-1027.48625	107.36163
20950.00000	107.23185	-1027.64249	107.23185
21000.00000	107.14613	-1028.04906	107.14613
21050.00000	107.24772	-1028.19135	107.24772
21100.00000	107.20922	-1028.33628	107.20922
21150.00000	107.32974	-1029.06689	107.32974
21200.00000	107.44908	-1029.40521	107.44908
21250.00000	107.56387	-1031.51029	107.56387
21300.00000	107.77456	-1032.00097	107.77456
21350.00000	107.89849	-1033.11176	107.89849
21400.00000	108.03117	-1035.11703	108.03117
21450.00000	108.19868	-1037.13417	108.19868
21500.00000	108.36751	-1039.43842	108.36751
21550.00000	108.39781	-1041.13098	108.39781
21600.00000	108.57152	-1043.61691	108.57152
21650.00000	108.62623	-1046.18985	108.62623
21700.00000	108.68400	-1048.33812	108.68400
21750.00000	108.77917	-1050.71693	108.77917
21800.00000	108.82558	-1053.07853	108.82558
21850.00000	108.78033	-1055.33867	108.78033
21900.00000	108.82638	-1057.91990	108.82638
21950.00000	108.85180	-1060.08532	108.85180
22000.00000	108.91558	-1062.19140	108.91558
22050.00000	108.88162	-1064.14635	108.88162
22100.00000	108.86285	-1066.56711	108.86285
22150.00000	108.83683	-1068.68312	108.83683
22200.00000	108.91787	-1070.90138	108.91787
22250.00000	108.86071	-1072.52370	108.86071
22300.00000	108.71374	-1074.67739	108.71374
22350.00000	108.80788	-1076.91697	108.80788
22400.00000	108.80928	-1079.24600	108.80928
22450.00000	108.75679	-1080.84321	108.75679
22500.00000	108.68964	-1081.76060	108.68964
