---ACOUSTIC CALIBRATION---
Filename: C:\Data\AZH DATA\AZH52\RightPrimary.calib
Date: 8/27/2019 6:36:22 PM
Format: 4
Probe Tube Correction File: C:\Data\Probe Tube Calibrations\50_ProbeTube.calib
Experiment VIs: 850
EPL_CFTS.exe V12.0.1 (2012)
DAQmx V9.6

Attenuation (dB): 40.000000
Min Freq (Hz): 50.000000
Max Freq (Hz): 49950.000000
Freq Step (Hz): 50.000000
Sample Rate (Hz): 100000.000000
[Smoothing]
Method=None
MA.Iterations=0
MA.Length=0
Loess.Length=0
Loess.Type=Linear
Loess.Robust=FALSE


Freq(Hz)	Mag(dB)	Phase(deg)	Unsmoothed(dB)

50.00000	107.34398	387.67683	107.34398
100.00000	81.67572	511.57820	81.67572
150.00000	75.41123	459.84201	75.41123
200.00000	70.44981	463.40124	70.44981
250.00000	85.33683	456.63609	85.33683
300.00000	89.03103	369.12355	89.03103
350.00000	87.13557	405.92633	87.13557
400.00000	87.15490	374.55574	87.15490
450.00000	86.56687	366.31935	86.56687
500.00000	87.63594	381.88702	87.63594
550.00000	90.77150	378.41424	90.77150
600.00000	95.31284	374.75123	95.31284
650.00000	96.86271	351.96878	96.86271
700.00000	97.83525	338.81302	97.83525
750.00000	100.25925	321.24148	100.25925
800.00000	100.36911	297.61997	100.36911
850.00000	100.43955	280.93271	100.43955
900.00000	98.48877	263.53647	98.48877
950.00000	96.87875	261.12173	96.87875
1000.00000	95.27718	261.20329	95.27718
1050.00000	93.11087	277.80879	93.11087
1100.00000	95.51211	300.49587	95.51211
1150.00000	98.34847	302.53184	98.34847
1200.00000	100.83193	301.28204	100.83193
1250.00000	102.67213	292.09228	102.67213
1300.00000	104.22869	286.93651	104.22869
1350.00000	105.48176	276.85735	105.48176
1400.00000	106.09782	268.58136	106.09782
1450.00000	107.24227	263.34692	107.24227
1500.00000	108.59234	256.46334	108.59234
1550.00000	109.22329	247.15011	109.22329
1600.00000	110.76304	237.16189	110.76304
1650.00000	111.50103	220.12092	111.50103
1700.00000	110.37925	210.27690	110.37925
1750.00000	109.94774	204.44510	109.94774
1800.00000	109.58626	200.35523	109.58626
1850.00000	109.75588	200.18516	109.75588
1900.00000	110.97961	196.61501	110.97961
1950.00000	111.70214	182.84896	111.70214
2000.00000	110.73636	171.65217	110.73636
2050.00000	109.57407	176.75959	109.57407
2100.00000	111.57744	174.82256	111.57744
2150.00000	112.02686	163.10835	112.02686
2200.00000	111.79548	153.43271	111.79548
2250.00000	111.29980	146.50805	111.29980
2300.00000	111.37746	140.98197	111.37746
2350.00000	111.18834	134.85648	111.18834
2400.00000	110.93728	128.61927	110.93728
2450.00000	110.59575	122.85276	110.59575
2500.00000	110.31560	117.16509	110.31560
2550.00000	109.75110	111.99043	109.75110
2600.00000	109.27465	107.84576	109.27465
2650.00000	108.74711	103.42581	108.74711
2700.00000	108.22885	100.31187	108.22885
2750.00000	107.68722	96.33557	107.68722
2800.00000	107.01536	93.57555	107.01536
2850.00000	106.46680	91.73509	106.46680
2900.00000	105.91936	89.42292	105.91936
2950.00000	105.20244	88.56386	105.20244
3000.00000	104.47683	87.01761	104.47683
3050.00000	103.53740	86.10395	103.53740
3100.00000	102.73589	87.29336	102.73589
3150.00000	101.65301	88.47937	101.65301
3200.00000	100.33087	95.57999	100.33087
3250.00000	99.44328	104.87764	99.44328
3300.00000	98.84383	117.53493	98.84383
3350.00000	99.28870	136.11425	99.28870
3400.00000	101.28753	151.83113	101.28753
3450.00000	103.94620	158.64238	103.94620
3500.00000	106.41406	159.10966	106.41406
3550.00000	108.41207	155.47087	108.41207
3600.00000	110.16252	152.08313	110.16252
3650.00000	111.54565	147.00113	111.54565
3700.00000	112.87112	142.36803	112.87112
3750.00000	114.17793	137.19257	114.17793
3800.00000	115.37801	130.79140	115.37801
3850.00000	116.44109	124.04130	116.44109
3900.00000	117.39697	117.30771	117.39697
3950.00000	118.33955	110.12879	118.33955
4000.00000	119.17044	102.67024	119.17044
4050.00000	119.95321	95.41493	119.95321
4100.00000	120.77713	87.94741	120.77713
4150.00000	121.79705	79.74555	121.79705
4200.00000	122.51939	69.84273	122.51939
4250.00000	123.23335	58.89498	123.23335
4300.00000	123.70632	46.78450	123.70632
4350.00000	123.83569	34.26922	123.83569
4400.00000	123.71717	22.60093	123.71717
4450.00000	123.41821	11.84011	123.41821
4500.00000	123.01634	 1.94633	123.01634
4550.00000	122.59547	-7.02244	122.59547
4600.00000	122.11630	-15.44382	122.11630
4650.00000	121.67474	-23.51283	121.67474
4700.00000	121.18403	-31.93509	121.18403
4750.00000	120.57127	-40.68360	120.57127
4800.00000	119.72990	-49.45743	119.72990
4850.00000	118.59900	-57.21162	118.59900
4900.00000	117.26217	-63.02502	117.26217
4950.00000	115.87373	-65.86035	115.87373
5000.00000	114.64762	-66.52499	114.64762
5050.00000	113.49214	-66.61912	113.49214
5100.00000	112.28354	-62.35549	112.28354
5150.00000	112.25897	-57.42553	112.25897
5200.00000	111.39440	-52.02068	111.39440
5250.00000	112.96367	-39.08938	112.96367
5300.00000	115.34447	-47.79995	115.34447
5350.00000	115.53177	-60.75437	115.53177
5400.00000	115.00263	-68.48498	115.00263
5450.00000	114.47478	-73.02887	114.47478
5500.00000	114.04578	-76.39077	114.04578
5550.00000	113.71114	-79.01602	113.71114
5600.00000	113.44452	-81.67425	113.44452
5650.00000	113.22317	-84.02219	113.22317
5700.00000	112.99132	-86.64743	112.99132
5750.00000	112.84208	-88.94613	112.84208
5800.00000	112.66999	-91.28167	112.66999
5850.00000	112.51951	-93.78808	112.51951
5900.00000	112.36881	-96.07389	112.36881
5950.00000	112.23463	-98.43289	112.23463
6000.00000	112.12198	-100.54440	112.12198
6050.00000	111.99059	-102.78024	111.99059
6100.00000	111.90179	-104.91487	111.90179
6150.00000	111.82079	-107.32242	111.82079
6200.00000	111.73473	-109.61224	111.73473
6250.00000	111.72376	-112.20289	111.72376
6300.00000	111.67293	-114.84398	111.67293
6350.00000	111.58332	-117.51325	111.58332
6400.00000	111.48116	-120.06558	111.48116
6450.00000	111.42435	-122.75571	111.42435
6500.00000	111.33895	-125.37104	111.33895
6550.00000	111.21734	-127.93541	111.21734
6600.00000	111.15378	-130.45497	111.15378
6650.00000	111.08123	-132.85656	111.08123
6700.00000	111.02215	-135.48645	111.02215
6750.00000	110.95329	-138.11455	110.95329
6800.00000	110.90139	-140.56196	110.90139
6850.00000	110.85700	-143.09258	110.85700
6900.00000	110.84296	-145.69114	110.84296
6950.00000	110.77141	-148.10110	110.77141
7000.00000	110.74474	-150.68941	110.74474
7050.00000	110.71640	-153.44946	110.71640
7100.00000	110.69508	-156.39844	110.69508
7150.00000	110.65544	-159.11476	110.65544
7200.00000	110.60171	-162.21581	110.60171
7250.00000	110.56031	-165.23815	110.56031
7300.00000	110.52857	-168.15435	110.52857
7350.00000	110.45491	-171.27048	110.45491
7400.00000	110.42026	-174.38614	110.42026
7450.00000	110.32339	-177.67071	110.32339
7500.00000	110.28903	-180.81209	110.28903
7550.00000	110.15970	-183.90626	110.15970
7600.00000	110.05005	-187.15587	110.05005
7650.00000	109.91953	-190.23257	109.91953
7700.00000	109.84076	-193.35003	109.84076
7750.00000	109.66205	-196.38387	109.66205
7800.00000	109.56394	-199.50729	109.56394
7850.00000	109.42698	-202.32423	109.42698
7900.00000	109.27903	-205.28156	109.27903
7950.00000	109.12696	-208.37908	109.12696
8000.00000	109.00845	-211.25588	109.00845
8050.00000	108.88860	-214.58242	108.88860
8100.00000	108.74489	-217.22538	108.74489
8150.00000	108.54515	-220.20508	108.54515
8200.00000	108.38795	-222.86458	108.38795
8250.00000	108.19046	-225.73286	108.19046
8300.00000	108.04859	-228.68925	108.04859
8350.00000	107.82551	-231.29619	107.82551
8400.00000	107.60974	-234.57418	107.60974
8450.00000	107.35305	-237.27912	107.35305
8500.00000	107.11881	-240.22372	107.11881
8550.00000	106.92420	-242.78597	106.92420
8600.00000	106.69561	-245.94219	106.69561
8650.00000	106.44466	-248.63509	106.44466
8700.00000	106.23673	-251.69300	106.23673
8750.00000	105.98248	-253.37429	105.98248
8800.00000	105.76794	-256.19461	105.76794
8850.00000	105.49838	-258.46053	105.49838
8900.00000	105.24689	-260.43507	105.24689
8950.00000	104.99135	-262.74928	104.99135
9000.00000	104.66923	-264.81930	104.66923
9050.00000	104.41511	-267.28964	104.41511
9100.00000	104.14717	-269.43073	104.14717
9150.00000	103.92803	-271.94133	103.92803
9200.00000	103.74666	-274.35516	103.74666
9250.00000	103.54367	-277.22112	103.54367
9300.00000	103.41324	-279.55925	103.41324
9350.00000	103.36685	-281.74862	103.36685
9400.00000	103.14819	-283.22053	103.14819
9450.00000	103.03280	-284.63846	103.03280
9500.00000	102.94362	-285.08826	102.94362
9550.00000	102.91449	-286.02352	102.91449
9600.00000	102.88168	-287.68889	102.88168
9650.00000	102.70096	-289.62636	102.70096
9700.00000	102.48677	-290.84036	102.48677
9750.00000	102.35779	-293.60997	102.35779
9800.00000	102.14020	-295.26238	102.14020
9850.00000	101.99631	-297.06948	101.99631
9900.00000	101.74510	-299.34804	101.74510
9950.00000	101.65012	-300.86050	101.65012
10000.00000	101.60701	-303.19008	101.60701
10050.00000	101.50715	-304.76269	101.50715
10100.00000	101.37957	-306.06590	101.37957
10150.00000	101.15755	-308.19126	101.15755
10200.00000	101.01347	-309.76768	101.01347
10250.00000	100.78064	-311.87340	100.78064
10300.00000	100.69526	-314.04236	100.69526
10350.00000	100.49013	-316.24976	100.49013
10400.00000	100.26661	-319.11522	100.26661
10450.00000	100.21010	-322.03671	100.21010
10500.00000	100.18190	-324.67543	100.18190
10550.00000	100.11440	-327.47461	100.11440
10600.00000	100.03823	-329.62198	100.03823
10650.00000	99.92514	-331.39244	99.92514
10700.00000	99.85067	-334.18613	99.85067
10750.00000	99.76422	-336.28747	99.76422
10800.00000	99.55435	-338.31047	99.55435
10850.00000	99.36618	-341.34122	99.36618
10900.00000	99.16091	-343.54728	99.16091
10950.00000	98.98805	-345.57771	98.98805
11000.00000	98.80081	-348.08784	98.80081
11050.00000	98.44979	-350.31962	98.44979
11100.00000	98.22916	-353.03681	98.22916
11150.00000	97.90609	-354.98397	97.90609
11200.00000	97.70056	-356.86996	97.70056
11250.00000	97.36343	-358.96014	97.36343
11300.00000	97.02097	-361.31271	97.02097
11350.00000	96.72145	-362.84840	96.72145
11400.00000	96.32266	-364.75345	96.32266
11450.00000	96.06068	-367.01990	96.06068
11500.00000	95.87730	-367.94309	95.87730
11550.00000	95.52113	-369.01594	95.52113
11600.00000	95.34020	-371.06445	95.34020
11650.00000	95.08982	-371.26583	95.08982
11700.00000	94.94145	-372.04066	94.94145
11750.00000	94.76949	-373.36571	94.76949
11800.00000	94.56973	-374.71028	94.56973
11850.00000	94.44449	-374.97375	94.44449
11900.00000	94.10530	-376.70682	94.10530
11950.00000	93.92931	-377.57288	93.92931
12000.00000	93.70200	-378.06689	93.70200
12050.00000	93.45830	-379.02826	93.45830
12100.00000	93.38694	-381.06032	93.38694
12150.00000	93.23375	-382.18927	93.23375
12200.00000	93.17871	-383.87398	93.17871
12250.00000	92.93862	-384.74018	92.93862
12300.00000	93.89006	-386.14125	93.89006
12350.00000	92.63715	-387.89746	92.63715
12400.00000	92.40792	-388.38859	92.40792
12450.00000	92.23075	-389.64260	92.23075
12500.00000	92.01404	-391.73371	92.01404
12550.00000	91.88863	-392.67110	91.88863
12600.00000	91.63284	-394.36687	91.63284
12650.00000	91.54038	-396.02810	91.54038
12700.00000	91.19093	-396.38826	91.19093
12750.00000	90.95909	-398.34410	90.95909
12800.00000	90.66769	-399.01184	90.66769
12850.00000	90.13410	-399.82936	90.13410
12900.00000	89.96999	-401.28285	89.96999
12950.00000	89.67140	-401.72692	89.67140
13000.00000	89.38991	-403.70320	89.38991
13050.00000	89.04156	-403.06744	89.04156
13100.00000	88.77877	-403.84086	88.77877
13150.00000	88.48657	-404.79604	88.48657
13200.00000	88.34310	-403.32450	88.34310
13250.00000	88.15298	-402.44104	88.15298
13300.00000	87.76078	-400.17703	87.76078
13350.00000	87.46591	-400.04531	87.46591
13400.00000	87.39920	-399.80884	87.39920
13450.00000	86.93623	-399.12787	86.93623
13500.00000	87.09081	-396.81018	87.09081
13550.00000	86.74987	-396.83948	86.74987
13600.00000	86.96384	-394.17083	86.96384
13650.00000	86.89230	-392.57867	86.89230
13700.00000	86.71406	-391.63028	86.71406
13750.00000	86.44720	-391.26449	86.44720
13800.00000	86.39113	-392.50059	86.39113
13850.00000	86.63619	-393.27195	86.63619
13900.00000	86.95246	-391.43910	86.95246
13950.00000	86.98492	-390.58432	86.98492
14000.00000	87.27922	-387.17360	87.27922
14050.00000	87.37320	-386.71488	87.37320
14100.00000	87.22660	-386.88311	87.22660
14150.00000	87.64113	-386.65096	87.64113
14200.00000	87.80642	-386.85614	87.80642
14250.00000	88.49984	-385.05851	88.49984
14300.00000	88.61147	-385.07976	88.61147
14350.00000	88.85174	-383.58215	88.85174
14400.00000	88.63254	-383.79528	88.63254
14450.00000	88.72926	-382.81890	88.72926
14500.00000	88.87468	-385.56620	88.87468
14550.00000	89.20768	-385.40353	89.20768
14600.00000	89.38262	-385.86745	89.38262
14650.00000	89.83008	-384.64701	89.83008
14700.00000	89.97951	-389.21637	89.97951
14750.00000	90.22469	-388.76499	90.22469
14800.00000	90.39407	-388.97379	90.39407
14850.00000	90.75908	-388.55642	90.75908
14900.00000	91.17774	-390.31390	91.17774
14950.00000	91.39652	-390.60380	91.39652
15000.00000	91.68482	-392.05257	91.68482
15050.00000	91.80642	-391.80682	91.80642
15100.00000	92.05361	-392.52827	92.05361
15150.00000	92.46454	-394.65220	92.46454
15200.00000	92.56560	-394.21777	92.56560
15250.00000	92.66489	-396.65688	92.66489
15300.00000	93.05225	-398.53186	93.05225
15350.00000	93.19229	-400.72928	93.19229
15400.00000	93.31258	-401.38070	93.31258
15450.00000	93.41783	-402.67631	93.41783
15500.00000	93.77795	-404.36100	93.77795
15550.00000	93.93715	-406.33013	93.93715
15600.00000	94.07691	-408.10904	94.07691
15650.00000	94.44310	-407.22368	94.44310
15700.00000	94.42843	-409.84813	94.42843
15750.00000	94.57114	-410.57719	94.57114
15800.00000	94.86898	-411.06021	94.86898
15850.00000	94.97870	-412.11780	94.97870
15900.00000	95.06222	-413.74525	95.06222
15950.00000	95.32735	-414.92898	95.32735
16000.00000	95.60456	-415.91759	95.60456
16050.00000	95.91784	-416.55070	95.91784
16100.00000	96.01995	-417.85034	96.01995
16150.00000	96.22528	-419.23317	96.22528
16200.00000	96.61035	-421.32244	96.61035
16250.00000	96.90095	-421.74833	96.90095
16300.00000	97.34610	-423.36497	97.34610
16350.00000	97.55843	-424.73615	97.55843
16400.00000	97.89369	-425.81049	97.89369
16450.00000	98.25540	-428.02951	98.25540
16500.00000	98.56713	-429.97862	98.56713
16550.00000	98.96444	-432.91808	98.96444
16600.00000	99.31435	-434.80880	99.31435
16650.00000	99.60691	-437.21994	99.60691
16700.00000	99.88696	-439.59970	99.88696
16750.00000	100.09629	-442.78034	100.09629
16800.00000	100.41202	-445.89819	100.41202
16850.00000	100.72342	-448.78668	100.72342
16900.00000	101.00534	-452.09092	101.00534
16950.00000	101.24701	-454.64723	101.24701
17000.00000	101.30316	-458.03184	101.30316
17050.00000	101.52547	-460.50503	101.52547
17100.00000	101.65823	-462.73938	101.65823
17150.00000	101.93960	-466.61862	101.93960
17200.00000	102.12038	-469.63795	102.12038
17250.00000	102.19439	-472.99997	102.19439
17300.00000	102.38672	-476.01415	102.38672
17350.00000	102.36800	-478.75043	102.36800
17400.00000	102.53912	-481.98361	102.53912
17450.00000	102.66103	-485.45732	102.66103
17500.00000	102.75350	-488.22853	102.75350
17550.00000	102.85286	-491.23236	102.85286
17600.00000	103.00964	-493.57704	103.00964
17650.00000	103.02674	-497.50991	103.02674
17700.00000	103.06940	-500.66617	103.06940
17750.00000	103.28049	-502.84998	103.28049
17800.00000	103.23899	-505.99954	103.23899
17850.00000	103.31657	-508.58732	103.31657
17900.00000	103.33966	-511.63933	103.33966
17950.00000	103.47816	-514.84827	103.47816
18000.00000	103.51060	-517.96340	103.51060
18050.00000	103.70086	-520.47373	103.70086
18100.00000	103.68059	-523.44239	103.68059
18150.00000	103.73165	-525.82233	103.73165
18200.00000	103.71487	-529.26298	103.71487
18250.00000	103.83869	-531.16823	103.83869
18300.00000	103.94917	-534.17185	103.94917
18350.00000	104.00311	-536.92059	104.00311
18400.00000	104.02583	-540.18122	104.02583
18450.00000	104.04249	-543.93322	104.04249
18500.00000	104.08486	-546.68272	104.08486
18550.00000	104.11867	-549.23960	104.11867
18600.00000	104.25006	-552.86738	104.25006
18650.00000	104.16751	-555.38286	104.16751
18700.00000	104.18069	-558.49012	104.18069
18750.00000	104.23413	-561.19428	104.23413
18800.00000	104.35521	-563.85854	104.35521
18850.00000	104.26367	-567.10191	104.26367
18900.00000	104.26725	-569.83419	104.26725
18950.00000	104.30881	-573.26560	104.30881
19000.00000	104.16799	-575.75014	104.16799
19050.00000	104.31732	-578.82260	104.31732
19100.00000	104.24285	-581.28254	104.24285
19150.00000	104.36387	-584.26959	104.36387
19200.00000	104.34096	-586.72149	104.34096
19250.00000	104.31729	-590.57899	104.31729
19300.00000	104.25152	-592.64034	104.25152
19350.00000	104.24754	-595.52141	104.24754
19400.00000	104.21233	-598.16974	104.21233
19450.00000	104.28478	-600.38886	104.28478
19500.00000	104.18247	-604.08115	104.18247
19550.00000	104.24722	-606.74818	104.24722
19600.00000	104.29481	-609.92016	104.29481
19650.00000	104.19993	-612.10912	104.19993
19700.00000	104.09666	-615.14397	104.09666
19750.00000	104.07091	-617.53574	104.07091
19800.00000	104.16397	-621.05034	104.16397
19850.00000	104.14134	-623.55694	104.14134
19900.00000	104.06000	-627.09674	104.06000
19950.00000	104.01050	-630.00337	104.01050
20000.00000	104.00065	-632.84062	104.00065
20050.00000	103.94740	-635.60739	103.94740
20100.00000	103.80603	-638.76066	103.80603
20150.00000	103.80288	-640.86184	103.80288
20200.00000	103.67835	-644.30401	103.67835
20250.00000	103.54315	-647.07478	103.54315
20300.00000	103.37977	-649.90472	103.37977
20350.00000	103.33730	-652.82749	103.33730
20400.00000	103.15451	-654.66364	103.15451
20450.00000	102.94962	-657.28995	102.94962
20500.00000	102.85404	-660.09807	102.85404
20550.00000	102.46984	-661.72960	102.46984
20600.00000	102.40928	-663.63239	102.40928
20650.00000	102.24727	-665.58019	102.24727
20700.00000	102.03496	-667.24481	102.03496
20750.00000	101.93768	-668.83814	101.93768
20800.00000	101.73385	-669.94494	101.73385
20850.00000	101.68638	-671.33475	101.68638
20900.00000	101.50555	-672.36475	101.50555
20950.00000	101.38873	-672.85081	101.38873
21000.00000	101.35658	-673.66029	101.35658
21050.00000	101.47529	-674.11810	101.47529
21100.00000	101.48352	-674.57121	101.48352
21150.00000	101.60973	-675.64226	101.60973
21200.00000	101.75592	-676.38776	101.75592
21250.00000	101.88511	-678.72033	101.88511
21300.00000	102.09566	-679.66236	102.09566
21350.00000	102.23078	-681.16260	102.23078
21400.00000	102.37478	-683.51299	102.37478
21450.00000	102.55254	-685.76953	102.55254
21500.00000	102.68805	-688.41699	102.68805
21550.00000	102.71284	-690.68709	102.71284
21600.00000	102.89506	-693.53583	102.89506
21650.00000	102.93215	-696.35150	102.93215
21700.00000	102.95029	-698.88145	102.95029
21750.00000	102.99979	-701.75359	102.99979
21800.00000	103.02802	-704.54829	103.02802
21850.00000	102.93203	-707.00135	102.93203
21900.00000	102.93193	-709.63307	102.93193
21950.00000	102.88199	-712.01853	102.88199
22000.00000	102.91991	-714.37711	102.91991
22050.00000	102.82953	-716.55272	102.82953
22100.00000	102.77696	-718.97839	102.77696
22150.00000	102.72647	-721.22612	102.72647
22200.00000	102.76234	-723.45138	102.76234
22250.00000	102.64648	-725.04486	102.64648
22300.00000	102.49791	-727.47100	102.49791
22350.00000	102.59221	-729.78826	102.59221
22400.00000	102.58584	-732.05150	102.58584
22450.00000	102.49871	-734.11332	102.49871
22500.00000	102.42693	-735.37937	102.42693
22550.00000	102.38206	-737.77056	102.38206
22600.00000	102.33766	-740.73168	102.33766
22650.00000	102.29017	-742.75343	102.29017
22700.00000	102.24133	-744.51148	102.24133
22750.00000	102.18223	-744.85857	102.18223
22800.00000	102.19670	-748.94689	102.19670
