---ACOUSTIC CALIBRATION---
Filename: C:\Data\AZH DATA\AZH31\RightPrimary.calib
Date: 8/27/2019 12:49:52 PM
Format: 4
Probe Tube Correction File: C:\Data\Probe Tube Calibrations\50_ProbeTube.calib
Experiment VIs: 850
EPL_CFTS.exe V12.0.1 (2012)
DAQmx V9.6

Attenuation (dB): 40.000000
Min Freq (Hz): 50.000000
Max Freq (Hz): 49950.000000
Freq Step (Hz): 50.000000
Sample Rate (Hz): 100000.000000
[Smoothing]
Method=None
MA.Iterations=0
MA.Length=0
Loess.Length=0
Loess.Type=Linear
Loess.Robust=FALSE


Freq(Hz)	Mag(dB)	Phase(deg)	Unsmoothed(dB)

50.00000	103.00791	640.50644	103.00791
100.00000	80.24898	592.73944	80.24898
150.00000	77.27021	494.84025	77.27021
200.00000	81.45844	434.61095	81.45844
250.00000	88.58443	459.00087	88.58443
300.00000	80.84176	410.08822	80.84176
350.00000	83.45851	385.95077	83.45851
400.00000	85.36710	387.30307	85.36710
450.00000	87.70221	381.44255	87.70221
500.00000	87.77652	364.12671	87.77652
550.00000	90.76955	365.71340	90.76955
600.00000	95.95592	362.22891	95.95592
650.00000	96.99179	347.76547	96.99179
700.00000	99.09200	337.08292	99.09200
750.00000	100.66866	317.15682	100.66866
800.00000	101.82594	292.40617	101.82594
850.00000	100.72678	275.75515	100.72678
900.00000	99.28260	262.18871	99.28260
950.00000	96.92522	259.21730	96.92522
1000.00000	95.39231	259.87765	95.39231
1050.00000	93.61615	279.25734	93.61615
1100.00000	95.99189	301.10013	95.99189
1150.00000	98.89229	303.01746	98.89229
1200.00000	101.60097	298.06685	101.60097
1250.00000	103.23005	291.30188	103.23005
1300.00000	104.84584	285.08896	104.84584
1350.00000	105.97904	275.50250	105.97904
1400.00000	106.72514	267.95381	106.72514
1450.00000	107.73033	262.60012	107.73033
1500.00000	108.78835	255.99031	108.78835
1550.00000	109.75042	246.46171	109.75042
1600.00000	111.18723	235.23685	111.18723
1650.00000	112.00191	219.66320	112.00191
1700.00000	110.78101	209.44047	110.78101
1750.00000	110.43251	204.10964	110.43251
1800.00000	110.23543	199.89336	110.23543
1850.00000	110.30171	199.66928	110.30171
1900.00000	111.72179	195.33376	111.72179
1950.00000	112.18627	181.22326	112.18627
2000.00000	111.15414	169.53715	111.15414
2050.00000	109.92386	175.59188	109.92386
2100.00000	111.94387	174.22041	111.94387
2150.00000	112.38348	162.35718	112.38348
2200.00000	112.25889	151.92420	112.25889
2250.00000	111.62757	145.71638	111.62757
2300.00000	111.75094	139.92770	111.75094
2350.00000	111.43444	133.74717	111.43444
2400.00000	111.16572	128.05849	111.16572
2450.00000	110.78948	121.91861	110.78948
2500.00000	110.45545	116.72513	110.45545
2550.00000	109.88427	111.40143	109.88427
2600.00000	109.34452	107.29416	109.34452
2650.00000	108.74771	103.71279	108.74771
2700.00000	108.23294	100.04442	108.23294
2750.00000	107.46482	96.65077	107.46482
2800.00000	106.77864	94.45327	106.77864
2850.00000	105.99100	93.04510	105.99100
2900.00000	105.24025	91.83489	105.24025
2950.00000	104.27592	91.54499	104.27592
3000.00000	103.26526	92.17248	103.26526
3050.00000	101.95229	95.67458	101.95229
3100.00000	100.84544	103.32469	100.84544
3150.00000	99.96164	115.48325	99.96164
3200.00000	100.46226	131.37662	100.46226
3250.00000	101.54507	142.81197	101.54507
3300.00000	103.02961	151.17248	103.02961
3350.00000	104.91343	157.77608	104.91343
3400.00000	107.08228	161.85388	107.08228
3450.00000	109.25457	160.91606	109.25457
3500.00000	111.34038	156.89928	111.34038
3550.00000	112.89888	150.23538	112.89888
3600.00000	114.30945	144.29154	114.30945
3650.00000	115.51608	137.08936	115.51608
3700.00000	116.60205	129.87015	116.60205
3750.00000	117.61530	122.00264	117.61530
3800.00000	118.40882	113.42047	118.40882
3850.00000	118.97700	105.41249	118.97700
3900.00000	119.51283	98.23257	119.51283
3950.00000	120.09523	91.36098	120.09523
4000.00000	120.64276	83.97474	120.64276
4050.00000	121.21054	76.65218	121.21054
4100.00000	121.79630	69.00763	121.79630
4150.00000	122.50444	60.45023	122.50444
4200.00000	122.87494	50.54511	122.87494
4250.00000	123.17947	40.27541	123.17947
4300.00000	123.29504	29.80328	123.29504
4350.00000	123.18633	19.41089	123.18633
4400.00000	122.94238	 9.89702	122.94238
4450.00000	122.60669	 1.06332	122.60669
4500.00000	122.23984	-7.10336	122.23984
4550.00000	121.89144	-15.09000	121.89144
4600.00000	121.48070	-22.89910	121.48070
4650.00000	121.05324	-30.62972	121.05324
4700.00000	120.53586	-38.82294	120.53586
4750.00000	119.82175	-47.00396	119.82175
4800.00000	118.88994	-54.68090	118.88994
4850.00000	117.72817	-60.83928	117.72817
4900.00000	116.49915	-64.69454	116.49915
4950.00000	115.33440	-66.37028	115.33440
5000.00000	114.32320	-66.79112	114.32320
5050.00000	113.45343	-66.51628	113.45343
5100.00000	112.53279	-62.50531	112.53279
5150.00000	112.72292	-58.72364	112.72292
5200.00000	112.56570	-54.42087	112.56570
5250.00000	114.12789	-53.89335	114.12789
5300.00000	114.56846	-63.50361	114.56846
5350.00000	114.16671	-69.78960	114.16671
5400.00000	113.71744	-73.49066	113.71744
5450.00000	113.34295	-76.10879	113.34295
5500.00000	113.04488	-78.44566	113.04488
5550.00000	112.81089	-80.50709	112.81089
5600.00000	112.59409	-82.39711	112.59409
5650.00000	112.43476	-84.29643	112.43476
5700.00000	112.26093	-86.44903	112.26093
5750.00000	112.14297	-88.11308	112.14297
5800.00000	112.03247	-89.81102	112.03247
5850.00000	111.97592	-91.73688	111.97592
5900.00000	111.96682	-93.60092	111.96682
5950.00000	111.99273	-95.92373	111.99273
6000.00000	112.00696	-98.50522	112.00696
6050.00000	111.98884	-101.34235	111.98884
6100.00000	111.93173	-104.26153	111.93173
6150.00000	111.83484	-107.19333	111.83484
6200.00000	111.71889	-109.95517	111.71889
6250.00000	111.61270	-112.64970	111.61270
6300.00000	111.51785	-115.18862	111.51785
6350.00000	111.39686	-117.85008	111.39686
6400.00000	111.27076	-120.39742	111.27076
6450.00000	111.20009	-122.88381	111.20009
6500.00000	111.07638	-125.37466	111.07638
6550.00000	110.96697	-127.81878	110.96697
6600.00000	110.87585	-130.09395	110.87585
6650.00000	110.80950	-132.40797	110.80950
6700.00000	110.74780	-134.89049	110.74780
6750.00000	110.68601	-137.23357	110.68601
6800.00000	110.63815	-139.56584	110.63815
6850.00000	110.60633	-142.03348	110.60633
6900.00000	110.56604	-144.54646	110.56604
6950.00000	110.53781	-147.15110	110.53781
7000.00000	110.49444	-149.65611	110.49444
7050.00000	110.44522	-152.42839	110.44522
7100.00000	110.41862	-155.17649	110.41862
7150.00000	110.36731	-157.87432	110.36731
7200.00000	110.30943	-160.64677	110.30943
7250.00000	110.24127	-163.57802	110.24127
7300.00000	110.20679	-166.43261	110.20679
7350.00000	110.12503	-169.40969	110.12503
7400.00000	110.06696	-172.46516	110.06696
7450.00000	109.97221	-175.57316	109.97221
7500.00000	109.85444	-178.51959	109.85444
7550.00000	109.77777	-181.48806	109.77777
7600.00000	109.65687	-184.50681	109.65687
7650.00000	109.53224	-187.55793	109.53224
7700.00000	109.44123	-190.41835	109.44123
7750.00000	109.26757	-193.45021	109.26757
7800.00000	109.12005	-196.09276	109.12005
7850.00000	108.96246	-198.78459	108.96246
7900.00000	108.83115	-201.32951	108.83115
7950.00000	108.68382	-204.12444	108.68382
8000.00000	108.55121	-206.76771	108.55121
8050.00000	108.40635	-209.66596	108.40635
8100.00000	108.28186	-211.88433	108.28186
8150.00000	108.10096	-214.30256	108.10096
8200.00000	107.98539	-216.56240	107.98539
8250.00000	107.82267	-219.15990	107.82267
8300.00000	107.70088	-221.55211	107.70088
8350.00000	107.55025	-223.80200	107.55025
8400.00000	107.39398	-226.60415	107.39398
8450.00000	107.18048	-229.06101	107.18048
8500.00000	106.99093	-231.85690	106.99093
8550.00000	106.84546	-234.32157	106.84546
8600.00000	106.66473	-237.24262	106.66473
8650.00000	106.46920	-239.88548	106.46920
8700.00000	106.33706	-243.13547	106.33706
8750.00000	106.13900	-244.87300	106.13900
8800.00000	106.00425	-247.78067	106.00425
8850.00000	105.82270	-250.32709	105.82270
8900.00000	105.66611	-252.31392	105.66611
8950.00000	105.48800	-254.94000	105.48800
9000.00000	105.23064	-257.03061	105.23064
9050.00000	105.04844	-259.62468	105.04844
9100.00000	104.83567	-261.94815	104.83567
9150.00000	104.61337	-264.33863	104.61337
9200.00000	104.44995	-266.87021	104.44995
9250.00000	104.22697	-269.23699	104.22697
9300.00000	104.09019	-271.67467	104.09019
9350.00000	104.00795	-274.05356	104.00795
9400.00000	103.81831	-275.79918	103.81831
9450.00000	103.72587	-277.47953	103.72587
9500.00000	103.69542	-278.16501	103.69542
9550.00000	103.73318	-279.57576	103.73318
9600.00000	103.72133	-281.80834	103.72133
9650.00000	103.56700	-284.02666	103.56700
9700.00000	103.41049	-285.60677	103.41049
9750.00000	103.28344	-288.42521	103.28344
9800.00000	103.05251	-290.32675	103.05251
9850.00000	102.89223	-292.29464	102.89223
9900.00000	102.62846	-295.02875	102.62846
9950.00000	102.51931	-296.92947	102.51931
10000.00000	102.41283	-299.67956	102.41283
10050.00000	102.24327	-301.67046	102.24327
10100.00000	102.09956	-303.48222	102.09956
10150.00000	101.86113	-305.92822	101.86113
10200.00000	101.71371	-307.76728	101.71371
10250.00000	101.47708	-310.10496	101.47708
10300.00000	101.36267	-312.29634	101.36267
10350.00000	101.13488	-314.47257	101.13488
10400.00000	100.88586	-317.14235	100.88586
10450.00000	100.79990	-319.96819	100.79990
10500.00000	100.71782	-322.44019	100.71782
10550.00000	100.61962	-325.01047	100.61962
10600.00000	100.48370	-327.08367	100.48370
10650.00000	100.36758	-328.79449	100.36758
10700.00000	100.23625	-331.61801	100.23625
10750.00000	100.11791	-333.79657	100.11791
10800.00000	99.88242	-335.67365	99.88242
10850.00000	99.65726	-338.78135	99.65726
10900.00000	99.45062	-340.95283	99.45062
10950.00000	99.22266	-343.04513	99.22266
11000.00000	99.00856	-345.52071	99.00856
11050.00000	98.64998	-347.86706	98.64998
11100.00000	98.39524	-350.53530	98.39524
11150.00000	98.03218	-352.48454	98.03218
11200.00000	97.78403	-354.30657	97.78403
11250.00000	97.41799	-356.49742	97.41799
11300.00000	97.01206	-358.45402	97.01206
11350.00000	96.64764	-359.86734	96.64764
11400.00000	96.21034	-361.57459	96.21034
11450.00000	95.87920	-363.46938	95.87920
11500.00000	95.66929	-364.18374	95.66929
11550.00000	95.25786	-365.04055	95.25786
11600.00000	95.06023	-366.74546	95.06023
11650.00000	94.75211	-366.52770	94.75211
11700.00000	94.51538	-366.97167	94.51538
11750.00000	94.30694	-367.62627	94.30694
11800.00000	94.06235	-368.60377	94.06235
11850.00000	93.90567	-368.27446	93.90567
11900.00000	93.56842	-369.32413	93.56842
11950.00000	93.40848	-369.76606	93.40848
12000.00000	93.18092	-369.78048	93.18092
12050.00000	92.98013	-370.07329	92.98013
12100.00000	92.86925	-371.45223	92.86925
12150.00000	92.69270	-372.17059	92.69270
12200.00000	92.65085	-373.25451	92.65085
12250.00000	92.53401	-373.55031	92.53401
12300.00000	93.54313	-374.67644	93.54313
12350.00000	92.29053	-375.29573	92.29053
12400.00000	92.17801	-375.27766	92.17801
12450.00000	92.06694	-375.95133	92.06694
12500.00000	91.92772	-377.39856	91.92772
12550.00000	91.80492	-378.50713	91.80492
12600.00000	91.59614	-380.25986	91.59614
12650.00000	91.62769	-381.50893	91.62769
12700.00000	91.37335	-382.23568	91.37335
12750.00000	91.21177	-383.76601	91.21177
12800.00000	91.05626	-384.63990	91.05626
12850.00000	90.50364	-385.37764	90.50364
12900.00000	90.28630	-386.61136	90.28630
12950.00000	90.08899	-387.79072	90.08899
13000.00000	89.81901	-389.14283	89.81901
13050.00000	89.66610	-388.53670	89.66610
13100.00000	89.33091	-389.30442	89.33091
13150.00000	89.18304	-389.56826	89.18304
13200.00000	88.95375	-388.17365	88.95375
13250.00000	88.64136	-388.09156	88.64136
13300.00000	88.37622	-385.89566	88.37622
13350.00000	88.05786	-386.18648	88.05786
13400.00000	88.06373	-385.50105	88.06373
13450.00000	87.72944	-383.44848	87.72944
13500.00000	87.68686	-381.85225	87.68686
13550.00000	87.58493	-381.58425	87.58493
13600.00000	87.54500	-379.39564	87.54500
13650.00000	87.46463	-378.16705	87.46463
13700.00000	87.13446	-377.41051	87.13446
13750.00000	87.13304	-376.61024	87.13304
13800.00000	87.06743	-376.85437	87.06743
13850.00000	87.02444	-375.92378	87.02444
13900.00000	87.14078	-374.55127	87.14078
13950.00000	87.28410	-373.48414	87.28410
14000.00000	87.64982	-370.85580	87.64982
14050.00000	87.85409	-369.19393	87.85409
14100.00000	87.90022	-367.36967	87.90022
14150.00000	88.13921	-366.21528	88.13921
14200.00000	88.36080	-364.84104	88.36080
14250.00000	88.88910	-362.65976	88.88910
14300.00000	89.10607	-362.30165	89.10607
14350.00000	89.44356	-360.28715	89.44356
14400.00000	89.37359	-359.85549	89.37359
14450.00000	89.71747	-358.40147	89.71747
14500.00000	89.99151	-358.86045	89.99151
14550.00000	90.37548	-357.57486	90.37548
14600.00000	90.65535	-358.29764	90.65535
14650.00000	91.23388	-356.32593	91.23388
14700.00000	91.58226	-360.57861	91.58226
14750.00000	92.02747	-360.06793	92.02747
14800.00000	92.33946	-359.34549	92.33946
14850.00000	92.91322	-358.92293	92.91322
14900.00000	93.42417	-359.47111	93.42417
14950.00000	93.89628	-360.16976	93.89628
15000.00000	94.40323	-360.95032	94.40323
15050.00000	94.64010	-360.29632	94.64010
15100.00000	95.08613	-361.29531	95.08613
15150.00000	95.72438	-363.09819	95.72438
15200.00000	96.10129	-363.11047	96.10129
15250.00000	96.43142	-365.03445	96.43142
15300.00000	97.10629	-366.91878	97.10629
15350.00000	97.56767	-369.29395	97.56767
15400.00000	97.91964	-370.13970	97.91964
15450.00000	98.35035	-372.69923	98.35035
15500.00000	98.91537	-374.94563	98.91537
15550.00000	99.36040	-377.70237	99.36040
15600.00000	99.74769	-380.22761	99.74769
15650.00000	100.32416	-381.18526	100.32416
15700.00000	100.49802	-385.15003	100.49802
15750.00000	101.00214	-387.69663	101.00214
15800.00000	101.39021	-389.90484	101.39021
15850.00000	101.69366	-392.83362	101.69366
15900.00000	101.93963	-396.19973	101.93963
15950.00000	102.32386	-399.26501	102.32386
16000.00000	102.60683	-401.87189	102.60683
16050.00000	102.95165	-404.80128	102.95165
16100.00000	103.11614	-408.19628	103.11614
16150.00000	103.32678	-411.15946	103.32678
16200.00000	103.58586	-414.77845	103.58586
16250.00000	103.86005	-417.73642	103.86005
16300.00000	104.24847	-420.67303	104.24847
16350.00000	104.42210	-423.72056	104.42210
16400.00000	104.61649	-426.59884	104.61649
16450.00000	104.82509	-429.53943	104.82509
16500.00000	105.02208	-432.70297	105.02208
16550.00000	105.27318	-436.35338	105.27318
16600.00000	105.49654	-439.17951	105.49654
16650.00000	105.60822	-442.37489	105.60822
16700.00000	105.82892	-445.14885	105.82892
16750.00000	105.91321	-448.76502	105.91321
16800.00000	106.12033	-452.33022	106.12033
16850.00000	106.33102	-455.47747	106.33102
16900.00000	106.49276	-458.71845	106.49276
16950.00000	106.65865	-461.87209	106.65865
17000.00000	106.69704	-465.21297	106.69704
17050.00000	106.85949	-467.75003	106.85949
17100.00000	106.91275	-470.09400	106.91275
17150.00000	107.15334	-473.91655	107.15334
17200.00000	107.28815	-476.83941	107.28815
17250.00000	107.37401	-480.58189	107.37401
17300.00000	107.54233	-483.77472	107.54233
17350.00000	107.52887	-486.59668	107.52887
17400.00000	107.70908	-489.74869	107.70908
17450.00000	107.74523	-493.58705	107.74523
17500.00000	107.89612	-496.75177	107.89612
17550.00000	107.99390	-499.85278	107.99390
17600.00000	108.16699	-502.76746	108.16699
17650.00000	108.24306	-506.87452	108.24306
17700.00000	108.29439	-510.40741	108.29439
17750.00000	108.48952	-513.06729	108.48952
17800.00000	108.45167	-517.11317	108.45167
17850.00000	108.53879	-520.11700	108.53879
17900.00000	108.59153	-523.67076	108.59153
17950.00000	108.70677	-527.50207	108.70677
18000.00000	108.73569	-531.47672	108.73569
18050.00000	108.89354	-534.43684	108.89354
18100.00000	108.84122	-538.55333	108.84122
18150.00000	108.84845	-541.54024	108.84845
18200.00000	108.80090	-545.71602	108.80090
18250.00000	108.85584	-548.55718	108.85584
18300.00000	108.88832	-552.22371	108.88832
18350.00000	108.85718	-555.55166	108.85718
18400.00000	108.78697	-559.46582	108.78697
18450.00000	108.69741	-564.06471	108.69741
18500.00000	108.68781	-567.35050	108.68781
18550.00000	108.60612	-570.26583	108.60612
18600.00000	108.61011	-574.20608	108.61011
18650.00000	108.39985	-577.27911	108.39985
18700.00000	108.29656	-581.12926	108.29656
18750.00000	108.24737	-584.23676	108.24737
18800.00000	108.25552	-586.88750	108.25552
18850.00000	108.01943	-590.22289	108.01943
18900.00000	107.88044	-593.24491	107.88044
18950.00000	107.80870	-596.80176	107.80870
19000.00000	107.55542	-599.31926	107.55542
19050.00000	107.56627	-602.27003	107.56627
19100.00000	107.40181	-604.91229	107.40181
19150.00000	107.42435	-607.57253	107.42435
19200.00000	107.29379	-609.88433	107.29379
19250.00000	107.16296	-613.81752	107.16296
19300.00000	107.00015	-615.71866	107.00015
19350.00000	106.91457	-618.43789	106.91457
19400.00000	106.78916	-620.90813	106.78916
19450.00000	106.77756	-623.03374	106.77756
19500.00000	106.59269	-626.42711	106.59269
19550.00000	106.55078	-628.90540	106.55078
19600.00000	106.54117	-632.02022	106.54117
19650.00000	106.36897	-634.12999	106.36897
19700.00000	106.18419	-636.87557	106.18419
19750.00000	106.09054	-638.87599	106.09054
19800.00000	106.09673	-642.26525	106.09673
19850.00000	106.00993	-644.56666	106.00993
19900.00000	105.87053	-647.76456	105.87053
19950.00000	105.74818	-650.21768	105.74818
20000.00000	105.65758	-652.88568	105.65758
20050.00000	105.56812	-655.49346	105.56812
20100.00000	105.37702	-658.08949	105.37702
20150.00000	105.32979	-659.80631	105.32979
20200.00000	105.17387	-663.20163	105.17387
20250.00000	104.99154	-665.46850	104.99154
20300.00000	104.78420	-668.02840	104.78420
20350.00000	104.72024	-670.64026	104.72024
20400.00000	104.50541	-672.23159	104.50541
20450.00000	104.26935	-674.64529	104.26935
20500.00000	104.16587	-677.17708	104.16587
20550.00000	103.75900	-678.57065	103.75900
20600.00000	103.67617	-680.38962	103.67617
20650.00000	103.48736	-682.27992	103.48736
20700.00000	103.25595	-683.86367	103.25595
20750.00000	103.13171	-685.29419	103.13171
20800.00000	102.91320	-686.30290	102.91320
20850.00000	102.80703	-687.64698	102.80703
20900.00000	102.59229	-688.81083	102.59229
20950.00000	102.44575	-689.25177	102.44575
21000.00000	102.33233	-690.02350	102.33233
21050.00000	102.38811	-690.29738	102.38811
21100.00000	102.30485	-690.84783	102.30485
21150.00000	102.37664	-691.68796	102.37664
21200.00000	102.44205	-692.14067	102.44205
21250.00000	102.47952	-694.14155	102.47952
21300.00000	102.61755	-694.57787	102.61755
21350.00000	102.66610	-695.69049	102.66610
21400.00000	102.74317	-697.48881	102.74317
21450.00000	102.86276	-699.12054	102.86276
21500.00000	102.96307	-701.03773	102.96307
21550.00000	102.92926	-702.56765	102.92926
21600.00000	103.08171	-704.66434	103.08171
21650.00000	103.10621	-706.87668	103.10621
21700.00000	103.13654	-708.56919	103.13654
21750.00000	103.17907	-710.61392	103.17907
21800.00000	103.21147	-712.84675	103.21147
21850.00000	103.15473	-714.80096	103.15473
21900.00000	103.16900	-716.84275	103.16900
21950.00000	103.17384	-718.40999	103.17384
22000.00000	103.20283	-720.35951	103.20283
22050.00000	103.21296	-721.84694	103.21296
22100.00000	103.19451	-723.69966	103.19451
22150.00000	103.18486	-725.51287	103.18486
22200.00000	103.25725	-727.29357	103.25725
22250.00000	103.19530	-728.71994	103.19530
22300.00000	103.12094	-730.55749	103.12094
22350.00000	103.26156	-732.62128	103.26156
22400.00000	103.29752	-734.73107	103.29752
22450.00000	103.25523	-736.20203	103.25523
22500.00000	103.22929	-736.85987	103.22929
22550.00000	103.27288	-738.81695	103.27288
22600.00000	103.27437	-741.75749	103.27437
22650.00000	103.30362	-743.47200	103.30362
22700.00000	103.34566	-745.11249	103.34566
22750.00000	103.33946	-745.37042	103.33946
