---ACOUSTIC CALIBRATION---
Filename: C:\Data\AZH DATA\AZH21\RightPrimary.calib
Date: 8/27/2019 12:02:46 PM
Format: 4
Probe Tube Correction File: C:\Data\Probe Tube Calibrations\50_ProbeTube.calib
Experiment VIs: 850
EPL_CFTS.exe V12.0.1 (2012)
DAQmx V9.6

Attenuation (dB): 40.000000
Min Freq (Hz): 50.000000
Max Freq (Hz): 49950.000000
Freq Step (Hz): 50.000000
Sample Rate (Hz): 100000.000000
[Smoothing]
Method=None
MA.Iterations=0
MA.Length=0
Loess.Length=0
Loess.Type=Linear
Loess.Robust=FALSE


Freq(Hz)	Mag(dB)	Phase(deg)	Unsmoothed(dB)

50.00000	101.29411	601.11715	101.29411
100.00000	78.57473	511.61684	78.57473
150.00000	75.70235	505.22840	75.70235
200.00000	80.16274	450.44615	80.16274
250.00000	88.90569	450.03582	88.90569
300.00000	86.38371	397.92732	86.38371
350.00000	86.68412	381.46605	86.68412
400.00000	88.67644	392.54030	88.67644
450.00000	89.88106	367.25623	89.88106
500.00000	90.08065	380.36808	90.08065
550.00000	94.45795	367.74963	94.45795
600.00000	96.05235	361.13838	96.05235
650.00000	99.15710	343.29258	99.15710
700.00000	101.58872	328.87063	101.58872
750.00000	103.08153	311.47519	103.08153
800.00000	103.86314	286.33717	103.86314
850.00000	103.18170	271.88135	103.18170
900.00000	101.71437	252.18740	101.71437
950.00000	99.44288	253.90194	99.44288
1000.00000	98.03325	254.39296	98.03325
1050.00000	95.81040	272.14848	95.81040
1100.00000	97.91897	292.93000	97.91897
1150.00000	100.79053	297.93535	100.79053
1200.00000	103.55845	296.43916	103.55845
1250.00000	105.07862	288.18219	105.07862
1300.00000	106.85334	283.07919	106.85334
1350.00000	108.14689	272.96082	108.14689
1400.00000	109.07808	266.89626	109.07808
1450.00000	110.04053	259.36328	110.04053
1500.00000	111.53649	254.05359	111.53649
1550.00000	111.95100	243.20216	111.95100
1600.00000	113.27929	234.26082	113.27929
1650.00000	114.30562	216.91059	114.30562
1700.00000	113.04255	207.20192	113.04255
1750.00000	112.78852	201.33165	112.78852
1800.00000	112.49064	196.40068	112.49064
1850.00000	112.70716	196.40572	112.70716
1900.00000	113.94465	191.14674	113.94465
1950.00000	114.53758	177.51167	114.53758
2000.00000	113.47289	165.44724	113.47289
2050.00000	112.14951	171.10793	112.14951
2100.00000	113.93676	169.21077	113.93676
2150.00000	114.64102	158.21629	114.64102
2200.00000	114.51846	148.28057	114.51846
2250.00000	113.84882	141.16599	113.84882
2300.00000	113.91400	135.69980	113.91400
2350.00000	113.58048	129.23328	113.58048
2400.00000	113.28504	123.83383	113.28504
2450.00000	112.95457	117.55830	112.95457
2500.00000	112.51421	112.91646	112.51421
2550.00000	112.01887	107.39186	112.01887
2600.00000	111.44842	103.17989	111.44842
2650.00000	110.95899	99.75239	110.95899
2700.00000	110.43291	97.06633	110.43291
2750.00000	109.77830	92.87245	109.77830
2800.00000	109.06691	90.49094	109.06691
2850.00000	108.32077	89.34520	108.32077
2900.00000	107.57284	87.69752	107.57284
2950.00000	106.75538	87.91754	106.75538
3000.00000	105.85091	88.58796	105.85091
3050.00000	104.83262	91.49627	104.83262
3100.00000	104.01350	96.77598	104.01350
3150.00000	103.16366	104.06903	103.16366
3200.00000	102.86695	116.52373	102.86695
3250.00000	103.44734	129.02083	103.44734
3300.00000	104.62928	138.87106	104.62928
3350.00000	106.18767	147.30191	106.18767
3400.00000	108.29992	153.59941	108.29992
3450.00000	110.52789	154.30523	110.52789
3500.00000	112.71834	151.26430	112.71834
3550.00000	114.40698	145.18554	114.40698
3600.00000	115.90891	139.42337	115.90891
3650.00000	117.16358	132.20933	117.16358
3700.00000	118.28329	125.13260	118.28329
3750.00000	119.31047	117.34032	119.31047
3800.00000	120.15131	108.90765	120.15131
3850.00000	120.76719	100.79334	120.76719
3900.00000	121.33867	93.40230	121.33867
3950.00000	121.94175	86.43086	121.94175
4000.00000	122.50891	78.94119	122.50891
4050.00000	123.06461	71.59721	123.06461
4100.00000	123.65217	63.93008	123.65217
4150.00000	124.39014	55.36474	124.39014
4200.00000	124.79902	45.46167	124.79902
4250.00000	125.13777	34.97323	125.13777
4300.00000	125.27319	24.15834	125.27319
4350.00000	125.17235	13.38310	125.17235
4400.00000	124.91464	 3.54584	124.91464
4450.00000	124.56456	-5.62524	124.56456
4500.00000	124.15423	-14.03212	124.15423
4550.00000	123.73790	-22.25492	123.73790
4600.00000	123.25887	-30.07067	123.25887
4650.00000	122.79934	-37.61955	122.79934
4700.00000	122.25357	-45.56618	122.25357
4750.00000	121.54769	-53.54417	121.54769
4800.00000	120.63377	-61.13190	120.63377
4850.00000	119.49914	-67.30389	119.49914
4900.00000	118.25781	-71.50716	118.25781
4950.00000	117.07266	-73.38448	117.07266
5000.00000	116.02857	-73.71245	116.02857
5050.00000	115.10788	-73.33816	115.10788
5100.00000	114.13632	-69.62799	114.13632
5150.00000	114.29117	-65.31541	114.29117
5200.00000	114.00172	-60.64718	114.00172
5250.00000	115.71635	-58.23813	115.71635
5300.00000	116.39826	-68.75355	116.39826
5350.00000	115.94088	-75.99496	115.94088
5400.00000	115.42508	-79.77307	115.42508
5450.00000	115.04443	-82.18651	115.04443
5500.00000	114.74098	-84.35467	114.74098
5550.00000	114.51555	-86.23803	114.51555
5600.00000	114.32011	-88.15515	114.32011
5650.00000	114.17600	-90.13849	114.17600
5700.00000	114.02226	-92.14867	114.02226
5750.00000	113.92861	-93.94888	113.92861
5800.00000	113.82242	-95.76213	113.82242
5850.00000	113.78414	-97.70087	113.78414
5900.00000	113.76135	-99.67963	113.76135
5950.00000	113.78855	-101.91482	113.78855
6000.00000	113.82408	-104.38354	113.82408
6050.00000	113.82084	-107.19708	113.82084
6100.00000	113.80250	-110.08345	113.80250
6150.00000	113.75769	-113.03027	113.75769
6200.00000	113.68124	-115.93025	113.68124
6250.00000	113.60637	-118.68266	113.60637
6300.00000	113.52444	-121.47582	113.52444
6350.00000	113.43876	-124.25717	113.43876
6400.00000	113.34942	-126.86396	113.34942
6450.00000	113.31536	-129.54755	113.31536
6500.00000	113.23627	-132.13237	113.23627
6550.00000	113.16158	-134.87022	113.16158
6600.00000	113.10923	-137.48435	113.10923
6650.00000	113.05390	-140.06657	113.05390
6700.00000	113.01863	-142.89213	113.01863
6750.00000	112.98546	-145.46152	112.98546
6800.00000	112.96005	-148.21729	112.96005
6850.00000	112.93422	-151.00836	112.93422
6900.00000	112.92035	-153.72701	112.92035
6950.00000	112.88959	-156.56341	112.88959
7000.00000	112.88377	-159.44656	112.88377
7050.00000	112.87320	-162.58735	112.87320
7100.00000	112.87885	-165.72245	112.87885
7150.00000	112.87027	-168.84585	112.87027
7200.00000	112.85261	-172.16385	112.85261
7250.00000	112.80646	-175.64056	112.80646
7300.00000	112.79971	-179.08422	112.79971
7350.00000	112.75423	-182.65905	112.75423
7400.00000	112.69937	-186.43188	112.69937
7450.00000	112.63431	-190.23984	112.63431
7500.00000	112.57697	-194.11006	112.57697
7550.00000	112.46310	-197.99993	112.46310
7600.00000	112.31578	-202.03265	112.31578
7650.00000	112.15858	-206.05421	112.15858
7700.00000	112.01858	-210.11940	112.01858
7750.00000	111.78449	-214.17382	111.78449
7800.00000	111.55811	-218.13746	111.55811
7850.00000	111.29960	-222.00290	111.29960
7900.00000	111.03653	-225.65475	111.03653
7950.00000	110.74622	-229.46279	110.74622
8000.00000	110.44015	-233.10923	110.44015
8050.00000	110.13892	-236.79152	110.13892
8100.00000	109.82352	-239.79232	109.82352
8150.00000	109.41252	-242.65703	109.41252
8200.00000	109.05885	-245.14753	109.05885
8250.00000	108.64272	-248.07072	108.64272
8300.00000	108.28039	-250.54320	108.28039
8350.00000	107.85948	-252.77158	107.85948
8400.00000	107.43449	-255.46254	107.43449
8450.00000	106.97057	-257.71148	106.97057
8500.00000	106.53209	-260.06736	106.53209
8550.00000	106.15889	-262.15608	106.15889
8600.00000	105.78843	-264.63033	105.78843
8650.00000	105.44693	-266.48178	105.44693
8700.00000	105.16940	-268.93986	105.16940
8750.00000	104.83219	-269.52525	104.83219
8800.00000	104.58898	-271.29495	104.58898
8850.00000	104.32591	-272.52761	104.32591
8900.00000	104.09703	-273.20474	104.09703
8950.00000	103.85066	-274.28914	103.85066
9000.00000	103.49351	-275.31699	103.49351
9050.00000	103.22449	-276.77196	103.22449
9100.00000	102.91322	-278.07455	102.91322
9150.00000	102.61863	-279.59046	102.61863
9200.00000	102.40097	-281.31736	102.40097
9250.00000	102.14611	-283.20206	102.14611
9300.00000	102.04576	-285.25128	102.04576
9350.00000	101.93413	-286.87574	101.93413
9400.00000	101.76942	-287.89625	101.76942
9450.00000	101.71942	-288.78465	101.71942
9500.00000	101.71491	-288.49851	101.71491
9550.00000	101.76162	-288.55899	101.76162
9600.00000	101.77971	-289.76474	101.77971
9650.00000	101.63029	-291.01391	101.63029
9700.00000	101.44062	-291.64450	101.44062
9750.00000	101.31069	-293.68351	101.31069
9800.00000	101.09141	-294.99674	101.09141
9850.00000	100.94934	-296.72790	100.94934
9900.00000	100.74658	-298.82891	100.74658
9950.00000	100.68215	-300.45546	100.68215
10000.00000	100.65595	-302.60066	100.65595
10050.00000	100.60072	-304.01506	100.60072
10100.00000	100.53584	-305.09900	100.53584
10150.00000	100.37427	-306.88461	100.37427
10200.00000	100.26103	-308.11143	100.26103
10250.00000	100.05321	-309.84760	100.05321
10300.00000	99.95724	-311.67588	99.95724
10350.00000	99.76161	-313.46075	99.76161
10400.00000	99.55147	-316.02523	99.55147
10450.00000	99.53289	-318.63904	99.53289
10500.00000	99.51776	-321.17289	99.51776
10550.00000	99.51157	-323.34172	99.51157
10600.00000	99.47887	-325.16508	99.47887
10650.00000	99.42104	-326.44719	99.42104
10700.00000	99.36244	-328.85288	99.36244
10750.00000	99.29410	-330.70571	99.29410
10800.00000	99.09468	-332.34372	99.09468
10850.00000	98.92562	-335.20934	98.92562
10900.00000	98.76362	-337.30472	98.76362
10950.00000	98.60560	-339.45629	98.60560
11000.00000	98.45771	-341.98247	98.45771
11050.00000	98.17743	-344.16181	98.17743
11100.00000	97.99294	-346.61111	97.99294
11150.00000	97.71420	-348.57707	97.71420
11200.00000	97.54268	-350.28254	97.54268
11250.00000	97.22294	-352.30738	97.22294
11300.00000	96.87472	-354.34854	96.87472
11350.00000	96.55427	-355.81067	96.55427
11400.00000	96.14178	-357.58497	96.14178
11450.00000	95.86711	-359.60898	95.86711
11500.00000	95.71081	-360.42522	95.71081
11550.00000	95.34429	-361.54266	95.34429
11600.00000	95.19087	-363.28963	95.19087
11650.00000	94.91740	-363.07801	94.91740
11700.00000	94.72380	-363.64795	94.72380
11750.00000	94.56784	-364.46014	94.56784
11800.00000	94.35669	-365.68850	94.35669
11850.00000	94.26318	-365.46551	94.26318
11900.00000	93.96466	-366.69884	93.96466
11950.00000	93.85662	-367.10749	93.85662
12000.00000	93.62477	-367.23076	93.62477
12050.00000	93.42363	-367.89814	93.42363
12100.00000	93.32427	-369.70824	93.32427
12150.00000	93.16557	-370.54774	93.16557
12200.00000	93.12013	-371.96086	93.12013
12250.00000	93.00723	-372.48761	93.00723
12300.00000	94.08218	-373.67332	94.08218
12350.00000	92.80848	-374.40996	92.80848
12400.00000	92.66659	-374.55718	92.66659
12450.00000	92.51948	-374.81009	92.51948
12500.00000	92.31870	-376.21004	92.31870
12550.00000	92.19046	-377.33747	92.19046
12600.00000	91.92783	-379.16542	91.92783
12650.00000	92.00534	-380.32992	92.00534
12700.00000	91.79077	-381.33190	91.79077
12750.00000	91.64637	-382.44880	91.64637
12800.00000	91.45534	-383.19780	91.45534
12850.00000	90.94987	-383.86153	90.94987
12900.00000	90.82487	-384.83176	90.82487
12950.00000	90.62347	-385.58849	90.62347
13000.00000	90.34473	-386.82563	90.34473
13050.00000	90.23932	-386.05968	90.23932
13100.00000	89.96135	-386.68121	89.96135
13150.00000	89.76768	-387.43165	89.76768
13200.00000	89.56533	-386.22670	89.56533
13250.00000	89.41192	-385.50547	89.41192
13300.00000	89.13776	-383.08510	89.13776
13350.00000	88.91126	-383.69256	88.91126
13400.00000	89.01029	-383.15400	89.01029
13450.00000	88.76981	-381.62923	88.76981
13500.00000	88.70098	-379.32414	88.70098
13550.00000	88.58510	-379.52672	88.58510
13600.00000	88.64780	-378.05747	88.64780
13650.00000	88.66811	-376.29931	88.66811
13700.00000	88.48992	-375.67452	88.48992
13750.00000	88.39002	-375.48996	88.39002
13800.00000	88.44355	-375.99801	88.44355
13850.00000	88.39278	-376.74114	88.39278
13900.00000	88.48686	-376.06883	88.48686
13950.00000	88.78304	-374.85395	88.78304
14000.00000	89.09786	-372.56860	89.09786
14050.00000	89.16724	-371.02840	89.16724
14100.00000	89.21138	-369.98625	89.21138
14150.00000	89.35408	-368.89357	89.35408
14200.00000	89.59341	-368.89364	89.59341
14250.00000	90.14887	-367.55085	90.14887
14300.00000	90.46821	-367.01662	90.46821
14350.00000	90.67127	-364.66657	90.67127
14400.00000	90.50835	-365.35622	90.50835
14450.00000	90.80132	-363.31687	90.80132
14500.00000	91.07233	-363.86847	91.07233
14550.00000	91.42926	-363.13905	91.42926
14600.00000	91.64554	-364.64719	91.64554
14650.00000	92.30571	-362.97308	92.30571
14700.00000	92.56265	-366.35700	92.56265
14750.00000	93.04861	-365.84407	93.04861
14800.00000	93.22740	-365.50566	93.22740
14850.00000	93.81641	-365.50690	93.81641
14900.00000	94.27086	-366.67287	94.27086
14950.00000	94.70328	-367.67054	94.70328
15000.00000	95.18837	-368.37253	95.18837
15050.00000	95.40000	-367.50141	95.40000
15100.00000	95.80994	-368.09539	95.80994
15150.00000	96.41225	-370.13703	96.41225
15200.00000	96.68116	-369.89638	96.68116
15250.00000	96.95209	-372.17519	96.95209
15300.00000	97.65813	-374.64289	97.65813
15350.00000	97.99378	-376.54206	97.99378
15400.00000	98.33949	-377.36929	98.33949
15450.00000	98.77788	-379.56981	98.77788
15500.00000	99.29056	-381.42033	99.29056
15550.00000	99.67648	-383.78145	99.67648
15600.00000	100.08113	-386.26697	100.08113
15650.00000	100.64166	-387.31853	100.64166
15700.00000	100.85587	-391.28000	100.85587
15750.00000	101.36859	-393.72503	101.36859
15800.00000	101.75396	-395.49982	101.75396
15850.00000	102.06904	-398.12871	102.06904
15900.00000	102.27864	-401.78740	102.27864
15950.00000	102.73908	-404.66321	102.73908
16000.00000	103.04774	-407.60106	103.04774
16050.00000	103.43107	-410.71164	103.43107
16100.00000	103.57899	-414.16044	103.57899
16150.00000	103.79231	-417.25780	103.79231
16200.00000	104.03482	-421.25702	104.03482
16250.00000	104.28541	-424.30737	104.28541
16300.00000	104.66793	-427.72457	104.66793
16350.00000	104.82829	-431.01356	104.82829
16400.00000	105.01066	-433.90972	105.01066
16450.00000	105.18582	-437.03846	105.18582
16500.00000	105.26175	-440.50807	105.26175
16550.00000	105.54798	-444.39953	105.54798
16600.00000	105.71781	-447.36667	105.71781
16650.00000	105.80639	-450.59716	105.80639
16700.00000	106.00626	-453.40494	106.00626
16750.00000	106.01504	-456.96821	106.01504
16800.00000	106.18472	-460.43876	106.18472
16850.00000	106.36890	-463.69949	106.36890
16900.00000	106.49008	-467.02782	106.49008
16950.00000	106.59496	-470.21225	106.59496
17000.00000	106.58168	-473.33416	106.58168
17050.00000	106.71598	-475.84738	106.71598
17100.00000	106.66668	-478.08103	106.66668
17150.00000	106.95223	-481.97673	106.95223
17200.00000	107.03801	-484.95820	107.03801
17250.00000	107.06816	-488.50814	107.06816
17300.00000	107.22651	-491.42301	107.22651
17350.00000	107.17295	-494.23791	107.17295
17400.00000	107.34813	-497.20746	107.34813
17450.00000	107.34807	-500.83284	107.34807
17500.00000	107.45255	-503.99373	107.45255
17550.00000	107.53919	-506.94906	107.53919
17600.00000	107.68904	-509.78708	107.68904
17650.00000	107.74307	-513.69154	107.74307
17700.00000	107.73632	-517.54861	107.73632
17750.00000	107.92891	-519.59777	107.92891
17800.00000	107.88989	-523.53041	107.88989
17850.00000	107.94616	-526.33176	107.94616
17900.00000	107.94895	-529.78248	107.94895
17950.00000	108.06795	-533.27360	108.06795
18000.00000	108.05585	-537.05199	108.05585
18050.00000	108.20483	-540.06876	108.20483
18100.00000	108.13197	-543.89727	108.13197
18150.00000	108.13234	-546.78970	108.13234
18200.00000	108.06223	-550.70780	108.06223
18250.00000	108.11790	-553.17037	108.11790
18300.00000	108.24497	-556.59154	108.24497
18350.00000	108.11503	-559.87152	108.11503
18400.00000	108.03516	-563.43445	108.03516
18450.00000	107.95734	-568.00975	107.95734
18500.00000	107.92046	-571.00230	107.92046
18550.00000	107.83817	-573.77884	107.83817
18600.00000	107.88130	-577.54822	107.88130
18650.00000	107.63769	-580.46731	107.63769
18700.00000	107.56004	-584.18663	107.56004
18750.00000	107.53171	-587.06514	107.53171
18800.00000	107.53363	-589.66689	107.53363
18850.00000	107.30592	-593.00747	107.30592
18900.00000	107.11562	-595.77212	107.11562
18950.00000	107.09692	-599.32042	107.09692
19000.00000	106.84511	-601.66716	106.84511
19050.00000	106.86128	-604.66372	106.86128
19100.00000	106.70030	-607.17956	106.70030
19150.00000	106.73610	-609.78121	106.73610
19200.00000	106.58076	-612.09372	106.58076
19250.00000	106.47068	-615.72875	106.47068
19300.00000	106.32374	-617.76279	106.32374
19350.00000	106.23933	-620.40792	106.23933
19400.00000	106.10156	-622.82940	106.10156
19450.00000	106.08534	-624.77032	106.08534
19500.00000	106.00094	-628.12546	106.00094
19550.00000	105.86199	-630.62869	105.86199
19600.00000	105.84968	-633.71351	105.84968
19650.00000	105.69073	-635.62867	105.69073
19700.00000	105.49807	-638.29976	105.49807
19750.00000	105.40421	-640.29167	105.40421
19800.00000	105.37232	-643.53155	105.37232
19850.00000	105.32517	-645.85874	105.32517
19900.00000	105.16413	-649.01786	105.16413
19950.00000	105.03629	-651.36128	105.03629
20000.00000	104.98084	-653.89345	104.98084
20050.00000	104.84751	-656.41182	104.84751
20100.00000	104.68783	-659.23422	104.68783
20150.00000	104.61908	-660.53720	104.61908
20200.00000	104.46763	-663.76910	104.46763
20250.00000	104.29122	-666.06280	104.29122
20300.00000	104.08219	-668.46860	104.08219
20350.00000	104.02589	-670.99631	104.02589
20400.00000	103.81162	-672.33840	103.81162
20450.00000	103.59591	-674.78655	103.59591
20500.00000	103.49459	-677.21652	103.49459
20550.00000	103.10800	-678.47795	103.10800
20600.00000	103.04938	-680.08056	103.04938
20650.00000	102.85630	-681.88156	102.85630
20700.00000	102.65314	-683.65554	102.65314
20750.00000	102.53619	-684.65705	102.53619
20800.00000	102.34416	-685.76058	102.34416
20850.00000	102.25837	-686.96211	102.25837
20900.00000	102.06975	-687.94527	102.06975
20950.00000	101.97258	-688.34254	101.97258
21000.00000	101.87585	-689.14930	101.87585
21050.00000	101.98902	-689.53512	101.98902
21100.00000	101.94585	-690.03020	101.94585
21150.00000	102.04267	-691.03419	102.04267
21200.00000	102.15360	-691.69030	102.15360
21250.00000	102.22889	-693.90247	102.22889
21300.00000	102.39812	-694.83451	102.39812
21350.00000	102.47655	-695.98978	102.47655
21400.00000	102.60201	-698.11886	102.60201
21450.00000	102.71208	-700.10065	102.71208
21500.00000	102.82569	-702.49257	102.82569
21550.00000	102.82423	-704.42948	102.82423
21600.00000	102.98230	-707.02775	102.98230
21650.00000	102.96987	-709.46473	102.96987
21700.00000	102.99763	-711.83429	102.99763
21750.00000	103.03089	-714.22189	103.03089
21800.00000	103.01780	-716.87922	103.01780
21850.00000	102.97003	-718.97927	102.97003
21900.00000	102.96167	-721.70461	102.96167
21950.00000	102.93216	-723.76458	102.93216
22000.00000	102.92353	-726.00480	102.92353
22050.00000	102.86476	-728.23909	102.86476
22100.00000	102.77845	-730.63572	102.77845
22150.00000	102.73465	-732.80948	102.73465
22200.00000	102.73865	-734.86678	102.73865
22250.00000	102.60471	-736.88891	102.60471
22300.00000	102.44078	-739.00073	102.44078
22350.00000	102.52340	-741.61422	102.52340
22400.00000	102.47866	-744.17256	102.47866
22450.00000	102.28437	-746.22338	102.28437
22500.00000	102.17911	-747.21017	102.17911
22550.00000	102.07829	-749.97687	102.07829
22600.00000	101.98613	-753.00670	101.98613
22650.00000	101.89239	-754.75228	101.89239
22700.00000	101.75672	-756.76565	101.75672
22750.00000	101.59297	-757.08196	101.59297
