---ACOUSTIC CALIBRATION---
Filename: C:\Data\AZH DATA\AZH21\RightPrimary.calib
Date: 8/27/2019 12:04:24 PM
Format: 4
Probe Tube Correction File: C:\Data\Probe Tube Calibrations\50_ProbeTube.calib
Experiment VIs: 850
EPL_CFTS.exe V12.0.1 (2012)
DAQmx V9.6

Attenuation (dB): 40.000000
Min Freq (Hz): 50.000000
Max Freq (Hz): 49950.000000
Freq Step (Hz): 50.000000
Sample Rate (Hz): 100000.000000
[Smoothing]
Method=None
MA.Iterations=0
MA.Length=0
Loess.Length=0
Loess.Type=Linear
Loess.Robust=FALSE


Freq(Hz)	Mag(dB)	Phase(deg)	Unsmoothed(dB)

50.00000	99.48170	614.56924	99.48170
100.00000	81.62575	545.69825	81.62575
150.00000	78.93100	449.14606	78.93100
200.00000	64.81381	407.58956	64.81381
250.00000	87.29861	445.29613	87.29861
300.00000	86.76500	364.02880	86.76500
350.00000	80.29570	421.20649	80.29570
400.00000	81.34927	361.49542	81.34927
450.00000	86.94529	360.68949	86.94529
500.00000	89.00003	387.28595	89.00003
550.00000	91.31890	370.19840	91.31890
600.00000	94.28873	368.22696	94.28873
650.00000	96.01303	355.76393	96.01303
700.00000	98.04479	338.45471	98.04479
750.00000	100.47380	320.82694	100.47380
800.00000	100.98552	298.55275	100.98552
850.00000	100.36956	280.64735	100.36956
900.00000	98.87417	262.08317	98.87417
950.00000	96.96679	260.00480	96.96679
1000.00000	95.71390	258.95746	95.71390
1050.00000	93.61059	273.89762	93.61059
1100.00000	95.07630	293.91925	95.07630
1150.00000	97.97825	301.20817	97.97825
1200.00000	100.67436	301.07477	100.67436
1250.00000	102.39419	292.20124	102.39419
1300.00000	103.95890	287.84062	103.95890
1350.00000	105.34681	276.74446	105.34681
1400.00000	105.99402	269.77859	105.99402
1450.00000	107.01260	262.84081	107.01260
1500.00000	108.09388	255.73090	108.09388
1550.00000	109.09011	247.98465	109.09011
1600.00000	110.49084	237.94183	110.49084
1650.00000	111.50731	221.39462	111.50731
1700.00000	110.23157	210.60482	110.23157
1750.00000	109.95885	204.66116	109.95885
1800.00000	109.75245	200.09142	109.75245
1850.00000	109.85589	198.79903	109.85589
1900.00000	110.93375	195.33546	110.93375
1950.00000	111.64733	182.56256	111.64733
2000.00000	110.77243	169.77712	110.77243
2050.00000	109.28028	174.33492	109.28028
2100.00000	111.13423	174.61546	111.13423
2150.00000	111.87620	163.63169	111.87620
2200.00000	111.77533	153.50106	111.77533
2250.00000	111.18106	145.79804	111.18106
2300.00000	111.22212	140.92812	111.22212
2350.00000	111.00989	133.93005	111.00989
2400.00000	110.72623	128.08237	110.72623
2450.00000	110.51607	122.15726	110.51607
2500.00000	110.00798	116.76266	110.00798
2550.00000	109.56297	111.62299	109.56297
2600.00000	109.02995	107.22470	109.02995
2650.00000	108.55361	103.60727	108.55361
2700.00000	108.07598	99.83028	108.07598
2750.00000	107.43626	96.37095	107.43626
2800.00000	106.69290	93.71714	106.69290
2850.00000	106.10673	91.82540	106.10673
2900.00000	105.33424	90.49330	105.33424
2950.00000	104.61335	89.47059	104.61335
3000.00000	103.76138	89.39782	103.76138
3050.00000	102.73080	89.53164	102.73080
3100.00000	101.63488	93.46752	101.63488
3150.00000	100.63116	97.57867	100.63116
3200.00000	99.39985	111.04114	99.39985
3250.00000	99.53136	126.11239	99.53136
3300.00000	100.66064	139.28581	100.66064
3350.00000	102.01367	150.85101	102.01367
3400.00000	104.42385	159.41159	104.42385
3450.00000	106.84811	162.13115	106.84811
3500.00000	109.31829	158.77498	109.31829
3550.00000	111.07592	152.90441	111.07592
3600.00000	112.65684	147.22499	112.65684
3650.00000	113.99964	140.45355	113.99964
3700.00000	115.17181	133.64016	115.17181
3750.00000	116.24993	126.53628	116.24993
3800.00000	117.17464	118.60528	117.17464
3850.00000	117.90467	110.94815	117.90467
3900.00000	118.59567	104.09689	118.59567
3950.00000	119.29193	96.98991	119.29193
4000.00000	119.95031	89.65655	119.95031
4050.00000	120.59911	82.27579	120.59911
4100.00000	121.28022	74.62514	121.28022
4150.00000	122.12251	66.01061	122.12251
4200.00000	122.62481	55.97343	122.62481
4250.00000	123.07019	45.24388	123.07019
4300.00000	123.26697	34.10653	123.26697
4350.00000	123.21696	22.92165	123.21696
4400.00000	123.00275	12.73191	123.00275
4450.00000	122.65554	 3.53917	122.65554
4500.00000	122.28781	-5.09973	122.28781
4550.00000	121.89933	-13.20138	121.89933
4600.00000	121.47543	-20.98096	121.47543
4650.00000	121.10018	-28.45764	121.10018
4700.00000	120.65864	-36.61171	120.65864
4750.00000	120.07478	-44.89719	120.07478
4800.00000	119.25075	-53.15610	119.25075
4850.00000	118.15131	-60.35205	118.15131
4900.00000	116.89674	-65.31475	116.89674
4950.00000	115.61341	-67.99696	115.61341
5000.00000	114.49637	-68.14489	114.49637
5050.00000	113.55564	-68.11017	113.55564
5100.00000	112.56873	-64.54540	112.56873
5150.00000	112.61840	-59.84933	112.61840
5200.00000	112.24358	-55.37063	112.24358
5250.00000	113.97728	-50.29251	113.97728
5300.00000	115.11544	-61.36521	115.11544
5350.00000	114.76390	-70.35060	114.76390
5400.00000	114.17171	-74.86342	114.17171
5450.00000	113.71733	-77.85089	113.71733
5500.00000	113.37641	-80.48929	113.37641
5550.00000	113.15605	-82.23319	113.15605
5600.00000	112.96400	-84.46912	112.96400
5650.00000	112.79959	-86.47877	112.79959
5700.00000	112.61859	-88.86456	112.61859
5750.00000	112.51810	-90.87003	112.51810
5800.00000	112.43875	-93.16760	112.43875
5850.00000	112.29589	-95.04220	112.29589
5900.00000	112.23281	-96.96552	112.23281
5950.00000	112.20854	-98.94744	112.20854
6000.00000	112.20342	-101.26728	112.20342
6050.00000	112.22766	-103.96059	112.22766
6100.00000	112.24205	-106.49747	112.24205
6150.00000	112.20105	-109.44915	112.20105
6200.00000	112.11146	-112.32398	112.11146
6250.00000	112.05820	-115.27499	112.05820
6300.00000	112.01123	-118.06931	112.01123
6350.00000	111.91337	-120.87789	111.91337
6400.00000	111.84044	-123.57673	111.84044
6450.00000	111.82455	-126.36846	111.82455
6500.00000	111.72110	-129.12176	111.72110
6550.00000	111.64863	-131.85099	111.64863
6600.00000	111.55105	-134.19633	111.55105
6650.00000	111.50148	-136.93999	111.50148
6700.00000	111.43306	-139.46409	111.43306
6750.00000	111.40232	-142.45014	111.40232
6800.00000	111.38283	-145.07623	111.38283
6850.00000	111.36319	-147.62100	111.36319
6900.00000	111.32355	-150.14582	111.32355
6950.00000	111.31691	-152.91393	111.31691
7000.00000	111.31134	-155.63417	111.31134
7050.00000	111.28454	-158.23363	111.28454
7100.00000	111.32167	-161.35907	111.32167
7150.00000	111.26759	-164.23511	111.26759
7200.00000	111.26464	-167.38561	111.26464
7250.00000	111.24034	-170.53542	111.24034
7300.00000	111.26638	-173.68977	111.26638
7350.00000	111.20377	-177.00138	111.20377
7400.00000	111.20864	-180.36258	111.20864
7450.00000	111.19247	-183.85419	111.19247
7500.00000	111.12217	-187.36305	111.12217
7550.00000	111.12265	-190.94360	111.12265
7600.00000	111.01831	-194.57508	111.01831
7650.00000	110.95735	-198.08422	110.95735
7700.00000	110.92069	-201.65225	110.92069
7750.00000	110.77009	-205.60316	110.77009
7800.00000	110.68634	-209.51985	110.68634
7850.00000	110.51580	-212.94064	110.51580
7900.00000	110.41253	-216.33578	110.41253
7950.00000	110.29388	-220.04612	110.29388
8000.00000	110.10038	-223.87821	110.10038
8050.00000	109.91532	-228.09085	109.91532
8100.00000	109.71170	-231.06829	109.71170
8150.00000	109.46633	-234.58490	109.46633
8200.00000	109.24537	-237.80211	109.24537
8250.00000	108.96436	-241.47991	108.96436
8300.00000	108.71971	-244.98200	108.71971
8350.00000	108.41225	-247.90780	108.41225
8400.00000	108.08980	-251.59609	108.08980
8450.00000	107.69265	-254.56336	107.69265
8500.00000	107.30449	-257.81399	107.30449
8550.00000	107.02814	-260.85342	107.02814
8600.00000	106.66014	-264.03234	106.66014
8650.00000	106.29007	-266.63747	106.29007
8700.00000	105.98084	-269.39717	105.98084
8750.00000	105.65068	-271.16459	105.65068
8800.00000	105.37594	-274.01437	105.37594
8850.00000	105.01571	-275.50960	105.01571
8900.00000	104.71648	-277.23254	104.71648
8950.00000	104.43673	-279.33443	104.43673
9000.00000	104.05219	-281.23492	104.05219
9050.00000	103.75427	-283.67266	103.75427
9100.00000	103.40751	-285.61563	103.40751
9150.00000	103.09733	-287.31578	103.09733
9200.00000	102.92859	-289.95487	102.92859
9250.00000	102.62346	-292.25896	102.62346
9300.00000	102.47363	-294.16789	102.47363
9350.00000	102.38526	-296.11478	102.38526
9400.00000	102.17339	-297.24456	102.17339
9450.00000	102.04456	-297.89436	102.04456
9500.00000	101.93085	-298.45572	101.93085
9550.00000	101.89003	-298.68137	101.89003
9600.00000	101.82027	-300.14590	101.82027
9650.00000	101.60784	-302.02414	101.60784
9700.00000	101.37486	-303.14492	101.37486
9750.00000	101.19608	-305.67421	101.19608
9800.00000	101.02273	-307.06896	101.02273
9850.00000	100.85109	-308.71388	100.85109
9900.00000	100.64123	-310.91115	100.64123
9950.00000	100.57277	-312.35100	100.57277
10000.00000	100.50173	-314.59239	100.50173
10050.00000	100.35779	-315.76369	100.35779
10100.00000	100.26750	-317.09803	100.26750
10150.00000	100.00752	-319.08601	100.00752
10200.00000	99.84371	-320.45192	99.84371
10250.00000	99.58526	-322.84785	99.58526
10300.00000	99.49648	-324.76715	99.49648
10350.00000	99.24530	-326.65151	99.24530
10400.00000	99.03053	-329.26003	99.03053
10450.00000	98.99302	-331.89226	98.99302
10500.00000	99.02136	-334.25870	99.02136
10550.00000	98.96777	-336.34390	98.96777
10600.00000	98.88159	-338.24432	98.88159
10650.00000	98.81440	-339.79502	98.81440
10700.00000	98.69867	-341.90508	98.69867
10750.00000	98.63374	-343.59230	98.63374
10800.00000	98.39307	-345.31119	98.39307
10850.00000	98.22707	-347.85235	98.22707
10900.00000	98.07147	-350.03636	98.07147
10950.00000	97.93325	-352.15287	97.93325
11000.00000	97.77807	-354.26781	97.77807
11050.00000	97.49220	-356.26883	97.49220
11100.00000	97.35268	-358.66099	97.35268
11150.00000	97.02594	-360.79629	97.02594
11200.00000	96.91410	-362.26250	96.91410
11250.00000	96.60237	-364.69973	96.60237
11300.00000	96.29421	-366.83541	96.29421
11350.00000	96.05962	-368.08819	96.05962
11400.00000	95.73429	-369.77731	95.73429
11450.00000	95.47968	-372.08921	95.47968
11500.00000	95.42763	-372.92636	95.42763
11550.00000	95.08628	-373.95814	95.08628
11600.00000	94.94527	-376.25295	94.94527
11650.00000	94.73587	-376.44062	94.73587
11700.00000	94.64178	-377.23574	94.64178
11750.00000	94.48038	-378.40089	94.48038
11800.00000	94.38007	-379.97856	94.38007
11850.00000	94.31463	-380.29858	94.31463
11900.00000	94.06874	-382.02826	94.06874
11950.00000	93.97493	-383.31686	93.97493
12000.00000	93.88989	-383.59332	93.88989
12050.00000	93.68700	-384.43857	93.68700
12100.00000	93.60331	-387.25598	93.60331
12150.00000	93.47169	-389.11657	93.47169
12200.00000	93.55527	-390.48715	93.55527
12250.00000	93.40072	-391.82437	93.40072
12300.00000	94.37507	-394.34206	94.37507
12350.00000	93.18250	-395.46859	93.18250
12400.00000	93.12063	-396.84885	93.12063
12450.00000	92.88745	-399.02690	92.88745
12500.00000	92.86653	-401.35700	92.86653
12550.00000	92.57165	-403.61963	92.57165
12600.00000	92.37957	-406.01282	92.37957
12650.00000	92.33315	-406.99809	92.33315
12700.00000	91.99611	-409.24196	91.99611
12750.00000	91.85334	-412.24386	91.85334
12800.00000	91.50127	-413.64917	91.50127
12850.00000	90.86849	-415.79709	90.86849
12900.00000	90.82539	-417.40959	90.82539
12950.00000	90.39245	-418.92974	90.39245
13000.00000	90.03972	-420.80809	90.03972
13050.00000	89.90487	-421.13072	89.90487
13100.00000	89.34538	-421.88642	89.34538
13150.00000	89.01291	-424.82480	89.01291
13200.00000	88.73996	-423.62223	88.73996
13250.00000	88.58263	-423.38731	88.58263
13300.00000	88.23825	-423.83644	88.23825
13350.00000	87.68232	-423.81849	87.68232
13400.00000	87.62503	-423.72004	87.62503
13450.00000	86.90688	-421.86758	86.90688
13500.00000	86.92682	-422.22860	86.92682
13550.00000	86.29990	-421.99983	86.29990
13600.00000	86.41440	-420.59412	86.41440
13650.00000	86.39533	-421.01094	86.39533
13700.00000	85.80745	-420.85512	85.80745
13750.00000	85.50206	-418.03515	85.50206
13800.00000	85.30861	-419.63203	85.30861
13850.00000	85.22413	-419.67162	85.22413
13900.00000	85.10815	-420.27999	85.10815
13950.00000	85.41098	-416.54408	85.41098
14000.00000	85.14475	-415.29811	85.14475
14050.00000	85.02152	-414.89577	85.02152
14100.00000	84.93497	-411.64434	84.93497
14150.00000	84.83926	-411.16841	84.83926
14200.00000	84.90041	-412.21144	84.90041
14250.00000	85.58541	-408.87041	85.58541
14300.00000	85.60448	-408.38533	85.60448
14350.00000	85.72535	-405.80041	85.72535
14400.00000	85.24755	-404.62847	85.24755
14450.00000	85.30634	-402.83652	85.30634
14500.00000	85.37297	-402.84636	85.37297
14550.00000	85.75966	-402.74966	85.75966
14600.00000	85.97590	-403.13330	85.97590
14650.00000	86.25692	-399.30009	86.25692
14700.00000	86.46029	-403.07398	86.46029
14750.00000	86.56923	-399.73995	86.56923
14800.00000	86.68683	-400.23212	86.68683
14850.00000	87.05149	-401.24417	87.05149
14900.00000	87.49141	-400.71738	87.49141
14950.00000	88.05804	-400.84626	88.05804
15000.00000	88.30453	-399.74948	88.30453
15050.00000	88.28825	-398.13633	88.28825
15100.00000	88.60650	-398.81618	88.60650
15150.00000	88.86449	-400.15543	88.86449
15200.00000	88.90925	-398.91227	88.90925
15250.00000	89.28784	-401.60588	89.28784
15300.00000	89.90420	-401.85273	89.90420
15350.00000	90.02514	-402.83265	90.02514
15400.00000	90.15016	-401.91004	90.15016
15450.00000	90.31384	-402.82668	90.31384
15500.00000	90.69717	-403.22693	90.69717
15550.00000	91.04395	-404.30914	91.04395
15600.00000	91.34991	-405.26446	91.34991
15650.00000	91.79903	-404.83306	91.79903
15700.00000	91.87383	-407.06487	91.87383
15750.00000	92.50613	-407.48331	92.50613
15800.00000	92.71363	-406.97689	92.71363
15850.00000	92.97276	-407.91207	92.97276
15900.00000	93.22459	-409.05922	93.22459
15950.00000	93.78869	-411.36595	93.78869
16000.00000	94.11835	-412.41737	94.11835
16050.00000	94.61036	-413.28511	94.61036
16100.00000	94.68686	-414.44896	94.68686
16150.00000	95.08280	-416.55556	95.08280
16200.00000	95.41880	-419.38463	95.41880
16250.00000	95.82750	-420.71472	95.82750
16300.00000	96.40367	-422.86428	96.40367
16350.00000	96.67582	-424.77645	96.67582
16400.00000	97.00007	-425.92399	97.00007
16450.00000	97.33058	-428.22535	97.33058
16500.00000	97.59914	-431.01903	97.59914
16550.00000	98.01743	-434.21760	98.01743
16600.00000	98.35317	-436.76003	98.35317
16650.00000	98.68502	-439.51197	98.68502
16700.00000	98.96621	-441.63160	98.96621
16750.00000	99.15013	-445.09817	99.15013
16800.00000	99.45514	-448.19438	99.45514
16850.00000	99.73242	-450.95627	99.73242
16900.00000	100.08228	-454.38256	100.08228
16950.00000	100.26869	-457.08975	100.26869
17000.00000	100.36420	-460.34996	100.36420
17050.00000	100.60433	-462.46697	100.60433
17100.00000	100.70933	-464.66802	100.70933
17150.00000	100.98081	-468.68623	100.98081
17200.00000	101.18168	-471.65762	101.18168
17250.00000	101.27918	-475.29134	101.27918
17300.00000	101.57976	-477.84959	101.57976
17350.00000	101.53934	-480.10600	101.53934
17400.00000	101.74792	-483.43186	101.74792
17450.00000	101.81772	-486.87108	101.81772
17500.00000	102.00983	-489.78060	102.00983
17550.00000	102.17396	-492.46310	102.17396
17600.00000	102.34783	-494.93143	102.34783
17650.00000	102.43775	-498.48696	102.43775
17700.00000	102.51726	-501.88335	102.51726
17750.00000	102.79827	-504.10107	102.79827
17800.00000	102.74502	-507.83770	102.74502
17850.00000	102.92761	-510.39762	102.92761
17900.00000	102.98390	-513.10609	102.98390
17950.00000	103.18162	-516.44382	103.18162
18000.00000	103.27902	-519.96184	103.27902
18050.00000	103.51171	-522.69080	103.51171
18100.00000	103.52090	-526.31551	103.52090
18150.00000	103.63660	-528.74170	103.63660
18200.00000	103.64274	-532.40023	103.64274
18250.00000	103.83211	-534.95859	103.83211
18300.00000	103.94624	-538.12803	103.94624
18350.00000	104.04533	-541.18755	104.04533
18400.00000	104.04871	-544.69076	104.04871
18450.00000	104.08503	-549.26682	104.08503
18500.00000	104.18113	-552.34139	104.18113
18550.00000	104.21470	-555.00236	104.21470
18600.00000	104.30538	-558.83218	104.30538
18650.00000	104.22636	-561.89767	104.22636
18700.00000	104.23424	-565.71757	104.23424
18750.00000	104.31410	-568.68994	104.31410
18800.00000	104.38627	-571.29733	104.38627
18850.00000	104.25185	-574.89025	104.25185
18900.00000	104.22067	-578.11461	104.22067
18950.00000	104.23338	-581.63926	104.23338
19000.00000	104.04832	-584.15111	104.04832
19050.00000	104.14800	-587.30769	104.14800
19100.00000	104.05484	-590.21864	104.05484
19150.00000	104.17051	-592.82494	104.17051
19200.00000	104.10560	-595.30109	104.10560
19250.00000	104.05932	-599.37065	104.05932
19300.00000	103.93697	-601.45975	103.93697
19350.00000	103.95368	-604.46953	103.95368
19400.00000	103.88499	-607.15462	103.88499
19450.00000	103.94852	-609.23611	103.94852
19500.00000	103.81741	-612.78948	103.81741
19550.00000	103.85185	-615.36011	103.85185
19600.00000	103.89394	-618.75647	103.89394
19650.00000	103.78948	-620.91275	103.78948
19700.00000	103.67194	-623.69107	103.67194
19750.00000	103.63225	-625.94013	103.63225
19800.00000	103.69921	-629.47619	103.69921
19850.00000	103.69013	-631.89919	103.69013
19900.00000	103.60716	-635.52583	103.60716
19950.00000	103.54272	-638.02473	103.54272
20000.00000	103.50803	-640.82223	103.50803
20050.00000	103.46947	-643.60974	103.46947
20100.00000	103.31661	-646.49150	103.31661
20150.00000	103.32237	-648.41423	103.32237
20200.00000	103.20461	-651.86545	103.20461
20250.00000	103.08130	-654.28022	103.08130
20300.00000	102.88796	-657.20542	102.88796
20350.00000	102.87016	-659.91142	102.87016
20400.00000	102.69666	-661.72158	102.69666
20450.00000	102.47945	-664.15039	102.47945
20500.00000	102.41474	-666.87451	102.41474
20550.00000	102.05552	-668.34054	102.05552
20600.00000	102.00189	-670.08969	102.00189
20650.00000	101.87071	-672.02354	101.87071
20700.00000	101.67109	-673.64051	101.67109
20750.00000	101.59924	-675.04787	101.59924
20800.00000	101.43192	-675.95585	101.43192
20850.00000	101.39124	-677.43216	101.39124
20900.00000	101.25494	-678.39018	101.25494
20950.00000	101.18723	-678.87157	101.18723
21000.00000	101.14868	-679.53955	101.14868
21050.00000	101.31460	-680.01099	101.31460
21100.00000	101.34431	-680.51419	101.34431
21150.00000	101.51291	-681.65324	101.51291
21200.00000	101.68773	-682.34151	101.68773
21250.00000	101.84116	-684.76456	101.84116
21300.00000	102.09788	-685.72751	102.09788
21350.00000	102.26095	-687.46039	102.26095
21400.00000	102.45127	-689.83746	102.45127
21450.00000	102.63946	-692.08265	102.63946
21500.00000	102.82033	-694.91446	102.82033
21550.00000	102.86966	-697.26193	102.86966
21600.00000	103.04978	-700.27967	103.04978
21650.00000	103.11235	-703.25251	103.11235
21700.00000	103.15824	-705.82544	103.15824
21750.00000	103.24082	-708.67216	103.24082
21800.00000	103.27098	-711.61328	103.27098
21850.00000	103.20479	-714.18350	103.20479
21900.00000	103.24420	-717.07030	103.24420
21950.00000	103.23774	-719.61059	103.23774
22000.00000	103.27356	-722.02028	103.27356
22050.00000	103.22131	-724.21616	103.22131
22100.00000	103.20584	-726.89744	103.20584
22150.00000	103.17294	-729.06453	103.17294
22200.00000	103.21663	-731.49718	103.21663
22250.00000	103.15630	-733.40458	103.15630
22300.00000	103.07097	-735.79636	103.07097
22350.00000	103.18864	-738.20604	103.18864
22400.00000	103.19403	-740.63419	103.19403
22450.00000	103.14680	-742.97408	103.14680
22500.00000	103.08407	-744.34615	103.08407
22550.00000	103.13115	-746.96878	103.13115
22600.00000	103.08534	-749.83943	103.08534
22650.00000	103.12535	-751.95583	103.12535
22700.00000	103.10415	-754.24972	103.10415
22750.00000	103.08313	-754.76579	103.08313
22800.00000	103.11876	-759.41371	103.11876
