---ACOUSTIC CALIBRATION---
Filename: C:\Data\AZH DATA\AZH21\RightPrimary.calib
Date: 8/27/2019 12:04:08 PM
Format: 4
Probe Tube Correction File: C:\Data\Probe Tube Calibrations\50_ProbeTube.calib
Experiment VIs: 850
EPL_CFTS.exe V12.0.1 (2012)
DAQmx V9.6

Attenuation (dB): 40.000000
Min Freq (Hz): 50.000000
Max Freq (Hz): 49950.000000
Freq Step (Hz): 50.000000
Sample Rate (Hz): 100000.000000
[Smoothing]
Method=None
MA.Iterations=0
MA.Length=0
Loess.Length=0
Loess.Type=Linear
Loess.Robust=FALSE


Freq(Hz)	Mag(dB)	Phase(deg)	Unsmoothed(dB)

50.00000	103.42419	642.94041	103.42419
100.00000	86.31625	579.73735	86.31625
150.00000	80.82199	494.55458	80.82199
200.00000	81.05650	475.57806	81.05650
250.00000	91.21554	472.68264	91.21554
300.00000	90.48742	437.15570	90.48742
350.00000	82.93474	396.83080	82.93474
400.00000	86.43008	380.04810	86.43008
450.00000	85.60290	348.67545	85.60290
500.00000	87.95704	364.50991	87.95704
550.00000	94.28723	377.57286	94.28723
600.00000	95.68544	366.05104	95.68544
650.00000	98.18224	353.32307	98.18224
700.00000	99.97672	340.83645	99.97672
750.00000	101.85447	319.36663	101.85447
800.00000	102.42125	297.20803	102.42125
850.00000	102.11951	279.97586	102.11951
900.00000	100.65491	261.57804	100.65491
950.00000	98.86854	259.54785	98.86854
1000.00000	97.36163	259.50185	97.36163
1050.00000	95.13798	273.78639	95.13798
1100.00000	96.64454	296.80882	96.64454
1150.00000	99.40898	301.67696	99.40898
1200.00000	102.38769	301.35613	102.38769
1250.00000	103.94738	293.22645	103.94738
1300.00000	105.67325	288.64213	105.67325
1350.00000	107.01323	278.98878	107.01323
1400.00000	107.85664	272.50189	107.85664
1450.00000	108.98595	264.59248	108.98595
1500.00000	110.08906	257.82786	110.08906
1550.00000	110.97197	248.81392	110.97197
1600.00000	112.35985	238.67637	112.35985
1650.00000	113.34496	222.30444	113.34496
1700.00000	112.19325	212.03583	112.19325
1750.00000	111.93981	206.26461	111.93981
1800.00000	111.68405	201.95855	111.68405
1850.00000	111.86678	200.41022	111.86678
1900.00000	113.03659	196.20575	113.03659
1950.00000	113.73797	182.73372	113.73797
2000.00000	112.79699	170.28133	112.79699
2050.00000	111.38898	174.77904	111.38898
2100.00000	113.25220	174.54337	113.25220
2150.00000	113.95108	163.57300	113.95108
2200.00000	113.84972	153.30235	113.84972
2250.00000	113.25223	145.48727	113.25223
2300.00000	113.34577	140.53745	113.34577
2350.00000	113.04373	133.52665	113.04373
2400.00000	112.66005	128.02964	112.66005
2450.00000	112.47233	121.76860	112.47233
2500.00000	111.98740	116.49093	111.98740
2550.00000	111.59688	111.53404	111.59688
2600.00000	111.05673	107.31422	111.05673
2650.00000	110.51574	103.61230	110.51574
2700.00000	110.03812	99.70808	110.03812
2750.00000	109.33314	96.12724	109.33314
2800.00000	108.66077	93.80258	108.66077
2850.00000	107.98504	92.15594	107.98504
2900.00000	107.30193	90.48576	107.30193
2950.00000	106.53352	90.17380	106.53352
3000.00000	105.64759	90.42782	105.64759
3050.00000	104.76636	92.32681	104.76636
3100.00000	103.94916	95.80162	103.94916
3150.00000	102.93323	101.52443	102.93323
3200.00000	102.16035	111.87304	102.16035
3250.00000	102.38110	125.76360	102.38110
3300.00000	103.26891	137.21995	103.26891
3350.00000	104.76065	147.78898	104.76065
3400.00000	106.94457	155.42679	106.94457
3450.00000	109.26475	157.71087	109.26475
3500.00000	111.55347	155.49919	111.55347
3550.00000	113.28675	149.95982	113.28675
3600.00000	114.87124	144.44562	114.87124
3650.00000	116.22123	137.57050	116.22123
3700.00000	117.41139	130.82436	117.41139
3750.00000	118.53148	123.30058	118.53148
3800.00000	119.46352	115.17724	119.46352
3850.00000	120.17602	107.20854	120.17602
3900.00000	120.84032	100.01294	120.84032
3950.00000	121.52310	92.70507	121.52310
4000.00000	122.16050	85.10647	122.16050
4050.00000	122.78362	77.61709	122.78362
4100.00000	123.42904	69.83260	123.42904
4150.00000	124.22920	61.13979	124.22920
4200.00000	124.69456	51.07221	124.69456
4250.00000	125.11695	40.29655	125.11695
4300.00000	125.30300	29.16541	125.30300
4350.00000	125.25485	17.95470	125.25485
4400.00000	125.02616	 7.64647	125.02616
4450.00000	124.67429	-1.78681	124.67429
4500.00000	124.28180	-10.58785	124.28180
4550.00000	123.86040	-18.83637	123.86040
4600.00000	123.39845	-26.81074	123.39845
4650.00000	122.96277	-34.50403	122.96277
4700.00000	122.44606	-42.63672	122.44606
4750.00000	121.77725	-50.86427	121.77725
4800.00000	120.90856	-58.79565	120.90856
4850.00000	119.78059	-65.48041	119.78059
4900.00000	118.51015	-70.05121	118.51015
4950.00000	117.28962	-72.29922	117.28962
5000.00000	116.21321	-72.89555	116.21321
5050.00000	115.25832	-72.47625	115.25832
5100.00000	114.26551	-68.95333	114.26551
5150.00000	114.32322	-64.28189	114.32322
5200.00000	113.94125	-59.89365	113.94125
5250.00000	115.62104	-54.73270	115.62104
5300.00000	116.74961	-65.44324	116.74961
5350.00000	116.38920	-74.08210	116.38920
5400.00000	115.84711	-78.60457	115.84711
5450.00000	115.43403	-81.42517	115.43403
5500.00000	115.13563	-83.81219	115.13563
5550.00000	114.89917	-85.91605	114.89917
5600.00000	114.70655	-88.01888	114.70655
5650.00000	114.56536	-90.08568	114.56536
5700.00000	114.41874	-92.31727	114.41874
5750.00000	114.31093	-94.35463	114.31093
5800.00000	114.20308	-96.46247	114.20308
5850.00000	114.13329	-98.44868	114.13329
5900.00000	114.09979	-100.43428	114.09979
5950.00000	114.09203	-102.58031	114.09203
6000.00000	114.12719	-104.80849	114.12719
6050.00000	114.14632	-107.43401	114.14632
6100.00000	114.16240	-110.38859	114.16240
6150.00000	114.16179	-113.35968	114.16179
6200.00000	114.11517	-116.29741	114.11517
6250.00000	114.07091	-119.23553	114.07091
6300.00000	114.03925	-122.03885	114.03925
6350.00000	113.96895	-124.97634	113.96895
6400.00000	113.89882	-127.72575	113.89882
6450.00000	113.88937	-130.49086	113.88937
6500.00000	113.82429	-133.31500	113.82429
6550.00000	113.77582	-136.12688	113.77582
6600.00000	113.73506	-138.79390	113.73506
6650.00000	113.71982	-141.43954	113.71982
6700.00000	113.72140	-144.34922	113.72140
6750.00000	113.72165	-147.24049	113.72165
6800.00000	113.71844	-150.04564	113.71844
6850.00000	113.73588	-152.94585	113.73588
6900.00000	113.75493	-155.79428	113.75493
6950.00000	113.77233	-158.79420	113.77233
7000.00000	113.81029	-161.84329	113.81029
7050.00000	113.84030	-165.18114	113.84030
7100.00000	113.89246	-168.57858	113.89246
7150.00000	113.92906	-171.92604	113.92906
7200.00000	113.96716	-175.54853	113.96716
7250.00000	113.97781	-179.30176	113.97781
7300.00000	114.02170	-183.22780	114.02170
7350.00000	114.02346	-187.15673	114.02346
7400.00000	114.03263	-191.37577	114.03263
7450.00000	114.01971	-195.79651	114.01971
7500.00000	113.99584	-200.13075	113.99584
7550.00000	113.92278	-204.77349	113.92278
7600.00000	113.81102	-209.48507	113.81102
7650.00000	113.68986	-214.11183	113.68986
7700.00000	113.58249	-218.95004	113.58249
7750.00000	113.37298	-223.87519	113.37298
7800.00000	113.13908	-228.69089	113.13908
7850.00000	112.86515	-233.34890	112.86515
7900.00000	112.57960	-237.86633	112.57960
7950.00000	112.26254	-242.39169	112.26254
8000.00000	111.90645	-246.78682	111.90645
8050.00000	111.52311	-251.18995	111.52311
8100.00000	111.12622	-254.71366	111.12622
8150.00000	110.65591	-258.23341	110.65591
8200.00000	110.20958	-261.52602	110.20958
8250.00000	109.70535	-264.90819	109.70535
8300.00000	109.23639	-267.94471	109.23639
8350.00000	108.72318	-270.78783	108.72318
8400.00000	108.22971	-273.88323	108.22971
8450.00000	107.67324	-276.72636	107.67324
8500.00000	107.17096	-279.45844	107.17096
8550.00000	106.73841	-281.73120	106.73841
8600.00000	106.30855	-284.28952	106.30855
8650.00000	105.89991	-286.28396	105.89991
8700.00000	105.55263	-288.58602	105.55263
8750.00000	105.15292	-289.28863	105.15292
8800.00000	104.84794	-290.88206	104.84794
8850.00000	104.46804	-291.99319	104.46804
8900.00000	104.13925	-292.75226	104.13925
8950.00000	103.77098	-293.79217	103.77098
9000.00000	103.32741	-294.99805	103.32741
9050.00000	102.92561	-296.80123	102.92561
9100.00000	102.51860	-298.18947	102.51860
9150.00000	102.18642	-300.14811	102.18642
9200.00000	101.90777	-302.09450	101.90777
9250.00000	101.65211	-304.10053	101.65211
9300.00000	101.47367	-306.07724	101.47367
9350.00000	101.41542	-307.65961	101.41542
9400.00000	101.22949	-308.32115	101.22949
9450.00000	101.15176	-308.77188	101.15176
9500.00000	101.04066	-308.11834	101.04066
9550.00000	101.00284	-307.91076	101.00284
9600.00000	100.91682	-308.84411	100.91682
9650.00000	100.66536	-310.03578	100.66536
9700.00000	100.38602	-310.71658	100.38602
9750.00000	100.20252	-312.87809	100.20252
9800.00000	99.95563	-314.43109	99.95563
9850.00000	99.80886	-316.25793	99.80886
9900.00000	99.61176	-318.50894	99.61176
9950.00000	99.56349	-319.74057	99.56349
10000.00000	99.53637	-321.55892	99.53637
10050.00000	99.48382	-322.50936	99.48382
10100.00000	99.36824	-323.16139	99.36824
10150.00000	99.16039	-324.57802	99.16039
10200.00000	98.94589	-325.54863	98.94589
10250.00000	98.68886	-327.18790	98.68886
10300.00000	98.55382	-329.11735	98.55382
10350.00000	98.31498	-331.09967	98.31498
10400.00000	98.09195	-333.83684	98.09195
10450.00000	98.10901	-336.46449	98.10901
10500.00000	98.10581	-338.56609	98.10581
10550.00000	98.12565	-340.67172	98.12565
10600.00000	98.08052	-342.05464	98.08052
10650.00000	98.01431	-343.04223	98.01431
10700.00000	97.91366	-345.13605	97.91366
10750.00000	97.79821	-346.70597	97.79821
10800.00000	97.57144	-348.25981	97.57144
10850.00000	97.38543	-351.04681	97.38543
10900.00000	97.23506	-353.18894	97.23506
10950.00000	97.09321	-355.26738	97.09321
11000.00000	96.98437	-357.58937	96.98437
11050.00000	96.74840	-359.63517	96.74840
11100.00000	96.61091	-361.96761	96.61091
11150.00000	96.33296	-363.51248	96.33296
11200.00000	96.18141	-365.08958	96.18141
11250.00000	95.90442	-367.07562	95.90442
11300.00000	95.56497	-369.12595	95.56497
11350.00000	95.28204	-370.54151	95.28204
11400.00000	94.94406	-372.58631	94.94406
11450.00000	94.71315	-374.95657	94.71315
11500.00000	94.59679	-376.04352	94.59679
11550.00000	94.27976	-377.35428	94.27976
11600.00000	94.15798	-379.55729	94.15798
11650.00000	93.91844	-379.72021	93.91844
11700.00000	93.75401	-380.93283	93.75401
11750.00000	93.60859	-382.19489	93.60859
11800.00000	93.45014	-383.90622	93.45014
11850.00000	93.32086	-384.26420	93.32086
11900.00000	93.00451	-386.10413	93.00451
11950.00000	92.82783	-387.06502	92.82783
12000.00000	92.54740	-388.03828	92.54740
12050.00000	92.27700	-389.20437	92.27700
12100.00000	92.11432	-391.59464	92.11432
12150.00000	91.88293	-392.86659	91.88293
12200.00000	91.81940	-394.95058	91.81940
12250.00000	91.61721	-395.87225	91.61721
12300.00000	92.53976	-396.82410	92.53976
12350.00000	91.13484	-398.07465	91.13484
12400.00000	90.91692	-398.07369	90.91692
12450.00000	90.62279	-398.84069	90.62279
12500.00000	90.28642	-400.71066	90.28642
12550.00000	90.00746	-402.09661	90.00746
12600.00000	89.77945	-403.64611	89.77945
12650.00000	89.75078	-404.62554	89.75078
12700.00000	89.50616	-404.99518	89.50616
12750.00000	89.26632	-405.98792	89.26632
12800.00000	88.97292	-406.24727	88.97292
12850.00000	88.36343	-406.54787	88.36343
12900.00000	88.15452	-407.65854	88.15452
12950.00000	87.95847	-408.62320	87.95847
13000.00000	87.68841	-409.62808	87.68841
13050.00000	87.52591	-409.38642	87.52591
13100.00000	87.24009	-409.89422	87.24009
13150.00000	87.10222	-410.29159	87.10222
13200.00000	86.81313	-408.71235	86.81313
13250.00000	86.60247	-408.65274	86.60247
13300.00000	86.16763	-406.08201	86.16763
13350.00000	85.89629	-406.94602	85.89629
13400.00000	85.80993	-407.13995	85.80993
13450.00000	85.51334	-405.76760	85.51334
13500.00000	85.60094	-404.67268	85.60094
13550.00000	85.44416	-404.31626	85.44416
13600.00000	85.42371	-401.48746	85.42371
13650.00000	85.09545	-400.17134	85.09545
13700.00000	84.59541	-399.19026	84.59541
13750.00000	84.43299	-399.72638	84.43299
13800.00000	84.27522	-401.13672	84.27522
13850.00000	84.36391	-402.40936	84.36391
13900.00000	84.40313	-400.71108	84.40313
13950.00000	84.59962	-398.41594	84.59962
14000.00000	84.85658	-393.39590	84.85658
14050.00000	84.58823	-392.04197	84.58823
14100.00000	84.17239	-390.80481	84.17239
14150.00000	84.25919	-390.92272	84.25919
14200.00000	84.55738	-390.16327	84.55738
14250.00000	85.12284	-388.78204	85.12284
14300.00000	85.36532	-386.20966	85.36532
14350.00000	85.56552	-382.23159	85.56552
14400.00000	85.17584	-381.24827	85.17584
14450.00000	85.23744	-379.13795	85.23744
14500.00000	85.31830	-379.30441	85.31830
14550.00000	85.73673	-378.42289	85.73673
14600.00000	85.92437	-379.88877	85.92437
14650.00000	86.41604	-375.99055	86.41604
14700.00000	86.84699	-377.89619	86.84699
14750.00000	87.12926	-376.17378	87.12926
14800.00000	87.24388	-374.64789	87.24388
14850.00000	87.83436	-374.58969	87.83436
14900.00000	88.12159	-374.43849	88.12159
14950.00000	88.58493	-374.30105	88.58493
15000.00000	89.05011	-374.76581	89.05011
15050.00000	89.49270	-372.64442	89.49270
15100.00000	89.84776	-371.78240	89.84776
15150.00000	90.31148	-372.13123	90.31148
15200.00000	90.48323	-370.14544	90.48323
15250.00000	90.79365	-373.05350	90.79365
15300.00000	91.44429	-374.05072	91.44429
15350.00000	91.94072	-375.76542	91.94072
15400.00000	92.45114	-374.92533	92.45114
15450.00000	92.94002	-375.79433	92.94002
15500.00000	93.54217	-375.98786	93.54217
15550.00000	93.87372	-377.47731	93.87372
15600.00000	94.31010	-379.57353	94.31010
15650.00000	94.93486	-380.24188	94.93486
15700.00000	95.35548	-383.08150	95.35548
15750.00000	96.08084	-384.38625	96.08084
15800.00000	96.58500	-385.13396	96.58500
15850.00000	96.94527	-386.96910	96.94527
15900.00000	97.24727	-390.10560	97.24727
15950.00000	97.72440	-393.04158	97.72440
16000.00000	98.19654	-395.95039	98.19654
16050.00000	98.74914	-398.21748	98.74914
16100.00000	98.99616	-401.17375	98.99616
16150.00000	99.28571	-403.63895	99.28571
16200.00000	99.62407	-407.66731	99.62407
16250.00000	99.95302	-410.57134	99.95302
16300.00000	100.49480	-413.92979	100.49480
16350.00000	100.73196	-416.93509	100.73196
16400.00000	101.03159	-419.47340	101.03159
16450.00000	101.31927	-422.48595	101.31927
16500.00000	101.55559	-425.98509	101.55559
16550.00000	101.82036	-429.47264	101.82036
16600.00000	102.04553	-432.66683	102.04553
16650.00000	102.24993	-435.87709	102.24993
16700.00000	102.55257	-438.52254	102.55257
16750.00000	102.65471	-441.86854	102.65471
16800.00000	102.88437	-445.39467	102.88437
16850.00000	103.09812	-448.62699	103.09812
16900.00000	103.29321	-452.01949	103.29321
16950.00000	103.47151	-455.32761	103.47151
17000.00000	103.56975	-458.58250	103.56975
17050.00000	103.76061	-460.94427	103.76061
17100.00000	103.78972	-463.21846	103.78972
17150.00000	104.07410	-467.14839	104.07410
17200.00000	104.18774	-470.08752	104.18774
17250.00000	104.30003	-473.67982	104.30003
17300.00000	104.55392	-476.45612	104.55392
17350.00000	104.52158	-479.40193	104.52158
17400.00000	104.73049	-482.41338	104.73049
17450.00000	104.78616	-485.85284	104.78616
17500.00000	104.93324	-488.95627	104.93324
17550.00000	105.06165	-492.08148	105.06165
17600.00000	105.27230	-494.43943	105.27230
17650.00000	105.35433	-498.55080	105.35433
17700.00000	105.45932	-501.75984	105.45932
17750.00000	105.64974	-504.35331	105.64974
17800.00000	105.66316	-508.23564	105.66316
17850.00000	105.79686	-510.99055	105.79686
17900.00000	105.89772	-514.44692	105.89772
17950.00000	106.06112	-518.05752	106.06112
18000.00000	106.12618	-521.68107	106.12618
18050.00000	106.32860	-524.80069	106.32860
18100.00000	106.33129	-528.64393	106.33129
18150.00000	106.39373	-531.57232	106.39373
18200.00000	106.39332	-535.55983	106.39332
18250.00000	106.51943	-538.24507	106.51943
18300.00000	106.61469	-541.89642	106.61469
18350.00000	106.65582	-545.31418	106.65582
18400.00000	106.63658	-549.10656	106.63658
18450.00000	106.60642	-553.76737	106.60642
18500.00000	106.63251	-556.99440	106.63251
18550.00000	106.62100	-559.99770	106.62100
18600.00000	106.68128	-564.02476	106.68128
18650.00000	106.51697	-567.23650	106.51697
18700.00000	106.47030	-571.01299	106.47030
18750.00000	106.48462	-574.37912	106.48462
18800.00000	106.53042	-577.12534	106.53042
18850.00000	106.33996	-580.76681	106.33996
18900.00000	106.23436	-583.83156	106.23436
18950.00000	106.18370	-587.44692	106.18370
19000.00000	105.97782	-589.96969	105.97782
19050.00000	106.02541	-593.12628	106.02541
19100.00000	105.91297	-596.01330	105.91297
19150.00000	105.96760	-598.79311	105.96760
19200.00000	105.87482	-601.30897	105.87482
19250.00000	105.76654	-605.28105	105.76654
19300.00000	105.64096	-607.42587	105.64096
19350.00000	105.61244	-610.28449	105.61244
19400.00000	105.48752	-612.88996	105.48752
19450.00000	105.52907	-615.12248	105.52907
19500.00000	105.36685	-618.83720	105.36685
19550.00000	105.33471	-621.50773	105.33471
19600.00000	105.35443	-624.75598	105.35443
19650.00000	105.21634	-626.90906	105.21634
19700.00000	105.04213	-629.92815	105.04213
19750.00000	104.95837	-632.10589	104.95837
19800.00000	104.97269	-635.65691	104.97269
19850.00000	104.89401	-638.13522	104.89401
19900.00000	104.76004	-641.53935	104.76004
19950.00000	104.63877	-644.16259	104.63877
20000.00000	104.56732	-646.80358	104.56732
20050.00000	104.45859	-649.46824	104.45859
20100.00000	104.26001	-652.26809	104.26001
20150.00000	104.22435	-653.98691	104.22435
20200.00000	104.06835	-657.23772	104.06835
20250.00000	103.88295	-659.60384	103.88295
20300.00000	103.67786	-662.13564	103.67786
20350.00000	103.60226	-664.75879	103.60226
20400.00000	103.40346	-666.16173	103.40346
20450.00000	103.17786	-668.59195	103.17786
20500.00000	103.09057	-670.93515	103.09057
20550.00000	102.69619	-672.26794	102.69619
20600.00000	102.62479	-673.81396	102.62479
20650.00000	102.47751	-675.50873	102.47751
20700.00000	102.27084	-676.93429	102.27084
20750.00000	102.16255	-678.28030	102.16255
20800.00000	101.97816	-679.05645	101.97816
20850.00000	101.91796	-680.26934	101.91796
20900.00000	101.77114	-681.06342	101.77114
20950.00000	101.70167	-681.38292	101.70167
21000.00000	101.65652	-681.97913	101.65652
21050.00000	101.79977	-682.37776	101.79977
21100.00000	101.82497	-682.74897	101.82497
21150.00000	101.97575	-683.70751	101.97575
21200.00000	102.13326	-684.25500	102.13326
21250.00000	102.28129	-686.54725	102.28129
21300.00000	102.50793	-687.42601	102.50793
21350.00000	102.65975	-688.87000	102.65975
21400.00000	102.81635	-691.21809	102.81635
21450.00000	103.00003	-693.40755	103.00003
21500.00000	103.16180	-696.00734	103.16180
21550.00000	103.19295	-698.23872	103.19295
21600.00000	103.36254	-701.07549	103.36254
21650.00000	103.40958	-703.86615	103.40958
21700.00000	103.45761	-706.30671	103.45761
21750.00000	103.51723	-709.05173	103.51723
21800.00000	103.53229	-711.70420	103.53229
21850.00000	103.46745	-714.20653	103.46745
21900.00000	103.49756	-716.66244	103.49756
21950.00000	103.48307	-718.95390	103.48307
22000.00000	103.49532	-721.21715	103.49532
22050.00000	103.46719	-723.42674	103.46719
22100.00000	103.42225	-725.73506	103.42225
22150.00000	103.38061	-727.80614	103.38061
22200.00000	103.45514	-729.92602	103.45514
22250.00000	103.40072	-731.69333	103.40072
22300.00000	103.29982	-733.95344	103.29982
22350.00000	103.40209	-736.37701	103.40209
22400.00000	103.42859	-738.47799	103.42859
22450.00000	103.37031	-740.42262	103.37031
22500.00000	103.31563	-741.63914	103.31563
22550.00000	103.33683	-744.07999	103.33683
22600.00000	103.34604	-747.03195	103.34604
22650.00000	103.33956	-749.03199	103.33956
22700.00000	103.34159	-751.03946	103.34159
22750.00000	103.35205	-751.31048	103.35205
22800.00000	103.40603	-755.96718	103.40603
