---ACOUSTIC CALIBRATION---
Filename: C:\Data\AZH DATA\AZH21\RightPrimary.calib
Date: 8/27/2019 12:03:34 PM
Format: 4
Probe Tube Correction File: C:\Data\Probe Tube Calibrations\50_ProbeTube.calib
Experiment VIs: 850
EPL_CFTS.exe V12.0.1 (2012)
DAQmx V9.6

Attenuation (dB): 40.000000
Min Freq (Hz): 50.000000
Max Freq (Hz): 49950.000000
Freq Step (Hz): 50.000000
Sample Rate (Hz): 100000.000000
[Smoothing]
Method=None
MA.Iterations=0
MA.Length=0
Loess.Length=0
Loess.Type=Linear
Loess.Robust=FALSE


Freq(Hz)	Mag(dB)	Phase(deg)	Unsmoothed(dB)

50.00000	101.69723	596.31442	101.69723
100.00000	76.12539	641.35435	76.12539
150.00000	79.12324	508.72535	79.12324
200.00000	80.88604	465.23457	80.88604
250.00000	89.71461	462.53266	89.71461
300.00000	95.05158	415.13166	95.05158
350.00000	80.69423	409.68477	80.69423
400.00000	88.51365	379.17265	88.51365
450.00000	87.12690	362.93794	87.12690
500.00000	88.71996	384.35417	88.71996
550.00000	94.22533	369.12428	94.22533
600.00000	95.62586	373.92730	95.62586
650.00000	98.61301	357.73216	98.61301
700.00000	100.50542	339.59018	100.50542
750.00000	101.99347	322.38715	101.99347
800.00000	102.42688	297.98994	102.42688
850.00000	102.16244	280.21536	102.16244
900.00000	100.47533	261.41752	100.47533
950.00000	98.66383	259.55686	98.66383
1000.00000	97.32707	258.67348	97.32707
1050.00000	94.92300	275.54273	94.92300
1100.00000	96.96833	297.27965	96.96833
1150.00000	99.63888	301.89222	99.63888
1200.00000	102.40911	301.48220	102.40911
1250.00000	104.19855	293.13671	104.19855
1300.00000	105.76966	289.43797	105.76966
1350.00000	107.01563	278.39803	107.01563
1400.00000	107.87383	271.21466	107.87383
1450.00000	109.06796	264.25860	109.06796
1500.00000	110.03178	256.92110	110.03178
1550.00000	110.96843	249.05527	110.96843
1600.00000	112.49144	238.68176	112.49144
1650.00000	113.42333	221.90188	113.42333
1700.00000	112.20285	211.82930	112.20285
1750.00000	111.97447	206.19977	111.97447
1800.00000	111.68123	201.92612	111.68123
1850.00000	111.85579	200.75558	111.85579
1900.00000	113.01771	196.37350	113.01771
1950.00000	113.75136	182.57598	113.75136
2000.00000	112.78664	170.11148	112.78664
2050.00000	111.42779	175.42754	111.42779
2100.00000	113.34712	174.75340	113.34712
2150.00000	113.98995	163.24282	113.98995
2200.00000	113.84476	153.04766	113.84476
2250.00000	113.25525	145.80097	113.25525
2300.00000	113.30678	140.58710	113.30678
2350.00000	113.06422	133.53626	113.06422
2400.00000	112.68410	127.77855	112.68410
2450.00000	112.42503	121.61746	112.42503
2500.00000	111.96434	116.41827	111.96434
2550.00000	111.54315	111.56437	111.54315
2600.00000	110.99103	107.43222	110.99103
2650.00000	110.42727	103.46646	110.42727
2700.00000	109.95793	99.81730	109.95793
2750.00000	109.27611	96.52926	109.27611
2800.00000	108.55929	93.99412	108.55929
2850.00000	107.85808	92.46979	107.85808
2900.00000	107.17173	90.80963	107.17173
2950.00000	106.34669	90.59175	106.34669
3000.00000	105.53900	90.92938	105.53900
3050.00000	104.46555	93.39084	104.46555
3100.00000	103.67049	97.95962	103.67049
3150.00000	102.65847	104.83966	102.65847
3200.00000	102.15809	117.22004	102.15809
3250.00000	102.73218	129.89129	102.73218
3300.00000	103.66504	141.16516	103.66504
3350.00000	105.41307	150.10113	105.41307
3400.00000	107.49932	157.31498	107.49932
3450.00000	109.76113	158.17204	109.76113
3500.00000	112.05060	155.42796	112.05060
3550.00000	113.73341	149.41015	113.73341
3600.00000	115.28218	143.71611	115.28218
3650.00000	116.57145	136.67175	116.57145
3700.00000	117.74426	129.69161	117.74426
3750.00000	118.83361	121.97059	118.83361
3800.00000	119.73059	113.70874	119.73059
3850.00000	120.39027	105.71082	120.39027
3900.00000	121.00363	98.49341	121.00363
3950.00000	121.65288	91.17060	121.65288
4000.00000	122.26648	83.60327	122.26648
4050.00000	122.86284	76.15676	122.86284
4100.00000	123.48324	68.32828	123.48324
4150.00000	124.25742	59.67582	124.25742
4200.00000	124.69694	49.67934	124.69694
4250.00000	125.08453	38.99891	125.08453
4300.00000	125.24337	28.00744	125.24337
4350.00000	125.18201	17.03085	125.18201
4400.00000	124.95417	 6.91789	124.95417
4450.00000	124.59482	-2.37994	124.59482
4500.00000	124.20878	-11.06158	124.20878
4550.00000	123.80489	-19.35801	123.80489
4600.00000	123.34064	-27.31722	123.34064
4650.00000	122.91136	-34.98148	122.91136
4700.00000	122.38274	-43.07313	122.38274
4750.00000	121.70313	-51.28505	121.70313
4800.00000	120.80292	-59.07139	120.80292
4850.00000	119.66836	-65.58728	119.66836
4900.00000	118.42164	-70.00654	118.42164
4950.00000	117.20583	-72.10823	117.20583
5000.00000	116.16978	-72.31458	116.16978
5050.00000	115.22517	-72.19815	115.22517
5100.00000	114.25876	-68.61299	114.25876
5150.00000	114.37891	-64.09460	114.37891
5200.00000	114.04338	-59.75367	114.04338
5250.00000	115.72975	-55.97009	115.72975
5300.00000	116.61859	-66.74381	116.61859
5350.00000	116.20743	-74.58671	116.20743
5400.00000	115.69201	-78.74682	115.69201
5450.00000	115.30232	-81.20982	115.30232
5500.00000	115.00182	-83.52810	115.00182
5550.00000	114.78279	-85.62590	114.78279
5600.00000	114.58696	-87.57152	114.58696
5650.00000	114.46200	-89.67191	114.46200
5700.00000	114.31828	-91.78594	114.31828
5750.00000	114.22374	-93.70922	114.22374
5800.00000	114.12095	-95.65570	114.12095
5850.00000	114.07822	-97.64638	114.07822
5900.00000	114.07985	-99.63967	114.07985
5950.00000	114.10579	-101.80843	114.10579
6000.00000	114.13158	-104.24487	114.13158
6050.00000	114.15294	-107.01584	114.15294
6100.00000	114.17020	-110.01708	114.17020
6150.00000	114.14007	-113.03244	114.14007
6200.00000	114.08698	-115.98807	114.08698
6250.00000	114.05132	-118.83173	114.05132
6300.00000	114.02171	-121.58946	114.02171
6350.00000	113.95736	-124.54876	113.95736
6400.00000	113.87868	-127.30941	113.87868
6450.00000	113.86037	-130.09198	113.86037
6500.00000	113.81097	-132.92504	113.81097
6550.00000	113.75673	-135.72595	113.75673
6600.00000	113.72836	-138.38777	113.72836
6650.00000	113.70624	-141.12829	113.70624
6700.00000	113.69088	-143.92575	113.69088
6750.00000	113.68180	-146.73432	113.68180
6800.00000	113.70709	-149.49322	113.70709
6850.00000	113.72528	-152.49054	113.72528
6900.00000	113.73009	-155.39240	113.73009
6950.00000	113.74249	-158.19871	113.74249
7000.00000	113.79606	-161.36553	113.79606
7050.00000	113.82567	-164.62582	113.82567
7100.00000	113.88766	-168.06771	113.88766
7150.00000	113.90840	-171.39827	113.90840
7200.00000	113.93521	-174.97711	113.93521
7250.00000	113.96482	-178.78791	113.96482
7300.00000	114.00571	-182.61191	114.00571
7350.00000	114.01107	-186.57281	114.01107
7400.00000	114.02013	-190.78555	114.02013
7450.00000	114.02037	-195.12815	114.02037
7500.00000	113.98402	-199.58583	113.98402
7550.00000	113.93458	-204.14832	113.93458
7600.00000	113.83842	-208.79660	113.83842
7650.00000	113.71980	-213.45253	113.71980
7700.00000	113.61382	-218.30461	113.61382
7750.00000	113.40310	-223.23286	113.40310
7800.00000	113.17574	-228.15208	113.17574
7850.00000	112.91067	-232.86665	112.91067
7900.00000	112.62399	-237.34837	112.62399
7950.00000	112.30449	-242.04840	112.30449
8000.00000	111.95035	-246.40260	111.95035
8050.00000	111.56727	-250.95182	111.56727
8100.00000	111.17202	-254.47993	111.17202
8150.00000	110.69021	-258.10962	110.69021
8200.00000	110.24743	-261.33658	110.24743
8250.00000	109.73930	-264.79478	109.73930
8300.00000	109.26310	-267.91631	109.26310
8350.00000	108.74737	-270.63289	108.74737
8400.00000	108.24312	-273.77718	108.24312
8450.00000	107.67843	-276.66140	107.67843
8500.00000	107.17265	-279.36526	107.17265
8550.00000	106.73640	-281.66495	106.73640
8600.00000	106.30331	-284.14301	106.30331
8650.00000	105.88352	-286.24252	105.88352
8700.00000	105.53222	-288.57920	105.53222
8750.00000	105.12044	-289.19691	105.12044
8800.00000	104.79453	-290.71810	104.79453
8850.00000	104.42324	-291.90126	104.42324
8900.00000	104.08013	-292.56149	104.08013
8950.00000	103.72600	-293.81001	103.72600
9000.00000	103.27112	-294.95902	103.27112
9050.00000	102.89506	-296.55502	102.89506
9100.00000	102.49105	-298.12996	102.49105
9150.00000	102.13825	-299.77945	102.13825
9200.00000	101.83314	-301.76505	101.83314
9250.00000	101.58371	-303.82010	101.58371
9300.00000	101.41258	-305.69885	101.41258
9350.00000	101.35037	-307.21791	101.35037
9400.00000	101.15583	-307.85779	101.15583
9450.00000	101.04822	-308.37728	101.04822
9500.00000	100.95310	-307.70179	100.95310
9550.00000	100.93068	-307.52806	100.93068
9600.00000	100.81865	-308.40039	100.81865
9650.00000	100.57521	-309.57300	100.57521
9700.00000	100.32363	-310.37834	100.32363
9750.00000	100.12426	-312.52281	100.12426
9800.00000	99.89379	-313.93609	99.89379
9850.00000	99.74065	-315.58863	99.74065
9900.00000	99.53415	-317.84836	99.53415
9950.00000	99.48978	-319.22067	99.48978
10000.00000	99.46306	-321.04401	99.46306
10050.00000	99.38555	-321.89269	99.38555
10100.00000	99.28388	-322.60612	99.28388
10150.00000	99.05694	-324.05159	99.05694
10200.00000	98.86049	-325.09877	98.86049
10250.00000	98.61024	-326.64427	98.61024
10300.00000	98.47207	-328.75973	98.47207
10350.00000	98.23336	-330.49015	98.23336
10400.00000	98.01627	-333.11171	98.01627
10450.00000	98.01576	-335.71860	98.01576
10500.00000	98.02497	-337.87416	98.02497
10550.00000	98.01700	-339.91299	98.01700
10600.00000	97.97904	-341.34557	97.97904
10650.00000	97.90432	-342.29763	97.90432
10700.00000	97.80624	-344.37541	97.80624
10750.00000	97.71467	-345.98016	97.71467
10800.00000	97.48432	-347.47541	97.48432
10850.00000	97.31089	-350.35576	97.31089
10900.00000	97.12554	-352.43318	97.12554
10950.00000	97.00940	-354.51182	97.00940
11000.00000	96.89959	-356.72492	96.89959
11050.00000	96.65473	-358.80521	96.65473
11100.00000	96.49149	-361.07267	96.49149
11150.00000	96.24337	-362.62794	96.24337
11200.00000	96.08479	-364.20998	96.08479
11250.00000	95.80372	-366.31883	95.80372
11300.00000	95.48138	-368.29033	95.48138
11350.00000	95.22373	-369.91495	95.22373
11400.00000	94.87171	-371.74928	94.87171
11450.00000	94.63186	-374.17765	94.63186
11500.00000	94.52804	-375.29905	94.52804
11550.00000	94.22031	-376.56653	94.22031
11600.00000	94.10416	-378.69958	94.10416
11650.00000	93.84474	-379.03338	93.84474
11700.00000	93.68475	-380.37478	93.68475
11750.00000	93.52138	-381.53459	93.52138
11800.00000	93.34826	-383.38438	93.34826
11850.00000	93.21681	-383.55726	93.21681
11900.00000	92.89219	-385.55384	92.89219
11950.00000	92.68742	-386.55674	92.68742
12000.00000	92.46426	-387.62533	92.46426
12050.00000	92.19751	-388.98733	92.19751
12100.00000	92.00654	-390.89773	92.00654
12150.00000	91.79347	-392.99457	91.79347
12200.00000	91.69898	-394.78654	91.69898
12250.00000	91.49945	-395.35989	91.49945
12300.00000	92.40201	-396.89413	92.40201
12350.00000	91.06894	-397.60653	91.06894
12400.00000	90.74705	-397.89679	90.74705
12450.00000	90.43890	-398.78397	90.43890
12500.00000	90.10227	-401.13144	90.10227
12550.00000	89.88901	-402.14334	89.88901
12600.00000	89.58393	-403.39687	89.58393
12650.00000	89.54681	-404.71807	89.54681
12700.00000	89.24594	-404.84944	89.24594
12750.00000	88.95690	-406.80480	88.95690
12800.00000	88.68145	-406.11753	88.68145
12850.00000	87.95440	-407.12924	87.95440
12900.00000	87.74541	-408.54362	87.74541
12950.00000	87.47055	-408.49471	87.47055
13000.00000	87.15254	-409.92292	87.15254
13050.00000	86.93832	-409.51739	86.93832
13100.00000	86.61295	-409.30141	86.61295
13150.00000	86.42209	-409.63480	86.42209
13200.00000	86.25327	-407.65132	86.25327
13250.00000	85.90481	-407.29703	85.90481
13300.00000	85.69155	-404.23047	85.69155
13350.00000	85.34238	-404.70904	85.34238
13400.00000	85.19193	-404.46999	85.19193
13450.00000	84.92433	-403.16499	84.92433
13500.00000	85.02717	-401.05754	85.02717
13550.00000	84.80432	-400.05137	84.80432
13600.00000	84.78503	-398.77290	84.78503
13650.00000	84.59259	-394.93823	84.59259
13700.00000	84.15484	-394.09908	84.15484
13750.00000	84.09808	-395.31992	84.09808
13800.00000	84.03664	-396.60503	84.03664
13850.00000	84.18897	-397.31771	84.18897
13900.00000	84.27013	-395.10235	84.27013
13950.00000	84.55646	-393.63412	84.55646
14000.00000	84.62524	-389.31536	84.62524
14050.00000	84.52106	-387.87752	84.52106
14100.00000	84.16728	-386.60725	84.16728
14150.00000	84.23188	-386.65282	84.23188
14200.00000	84.48006	-386.72695	84.48006
14250.00000	85.03738	-384.43841	85.03738
14300.00000	85.23482	-381.45128	85.23482
14350.00000	85.57534	-378.88011	85.57534
14400.00000	85.25363	-379.07054	85.25363
14450.00000	85.26447	-375.87676	85.26447
14500.00000	85.41181	-376.52038	85.41181
14550.00000	85.70783	-375.47827	85.70783
14600.00000	85.93483	-375.29305	85.93483
14650.00000	86.57121	-373.08966	86.57121
14700.00000	86.74805	-376.18888	86.74805
14750.00000	87.13335	-374.02711	87.13335
14800.00000	87.24704	-371.81960	87.24704
14850.00000	87.69209	-370.99718	87.69209
14900.00000	88.19065	-371.67152	88.19065
14950.00000	88.56673	-371.59412	88.56673
15000.00000	88.99420	-372.22360	88.99420
15050.00000	89.36527	-370.20234	89.36527
15100.00000	89.76545	-369.04729	89.76545
15150.00000	90.19136	-368.16441	90.19136
15200.00000	90.49093	-367.66999	90.49093
15250.00000	90.60966	-369.36942	90.60966
15300.00000	91.40652	-370.45745	91.40652
15350.00000	91.92995	-372.29401	91.92995
15400.00000	92.42455	-371.04214	92.42455
15450.00000	92.87840	-371.45176	92.87840
15500.00000	93.29562	-372.01413	93.29562
15550.00000	93.83176	-373.39497	93.83176
15600.00000	94.23787	-375.04407	94.23787
15650.00000	94.92535	-375.58469	94.92535
15700.00000	95.31773	-378.43241	95.31773
15750.00000	96.03772	-379.59811	96.03772
15800.00000	96.62040	-380.57181	96.62040
15850.00000	97.02888	-382.03203	97.02888
15900.00000	97.35974	-385.47460	97.35974
15950.00000	97.89285	-388.22380	97.89285
16000.00000	98.41521	-391.12299	98.41521
16050.00000	98.93059	-393.33308	98.93059
16100.00000	99.24411	-396.73568	99.24411
16150.00000	99.63519	-399.24433	99.63519
16200.00000	99.99197	-403.13602	99.99197
16250.00000	100.34983	-406.18451	100.34983
16300.00000	100.82820	-409.76184	100.82820
16350.00000	101.13267	-413.10026	101.13267
16400.00000	101.48232	-416.17626	101.48232
16450.00000	101.73035	-419.39615	101.73035
16500.00000	101.97624	-422.67045	101.97624
16550.00000	102.27386	-426.81990	102.27386
16600.00000	102.48544	-430.21756	102.48544
16650.00000	102.67349	-433.47469	102.67349
16700.00000	102.93086	-436.61805	102.93086
16750.00000	103.04113	-440.35803	103.04113
16800.00000	103.24053	-443.76735	103.24053
16850.00000	103.43659	-447.00576	103.43659
16900.00000	103.57754	-450.47530	103.57754
16950.00000	103.74371	-453.79152	103.74371
17000.00000	103.80774	-457.20762	103.80774
17050.00000	104.00848	-459.53624	104.00848
17100.00000	104.03100	-461.58729	104.03100
17150.00000	104.27083	-465.64482	104.27083
17200.00000	104.37424	-468.54457	104.37424
17250.00000	104.48764	-472.20458	104.48764
17300.00000	104.70148	-475.10028	104.70148
17350.00000	104.65807	-477.73772	104.65807
17400.00000	104.87372	-480.84061	104.87372
17450.00000	104.89509	-484.32726	104.89509
17500.00000	105.05297	-487.51439	105.05297
17550.00000	105.13939	-490.60593	105.13939
17600.00000	105.37328	-493.25775	105.37328
17650.00000	105.42532	-497.14734	105.42532
17700.00000	105.47639	-500.10704	105.47639
17750.00000	105.69948	-502.67880	105.69948
17800.00000	105.68437	-506.51891	105.68437
17850.00000	105.81647	-509.14808	105.81647
17900.00000	105.88546	-512.40039	105.88546
17950.00000	106.00966	-515.91402	106.00966
18000.00000	106.09887	-519.48367	106.09887
18050.00000	106.30472	-522.27985	106.30472
18100.00000	106.30717	-526.07325	106.30717
18150.00000	106.38267	-528.86282	106.38267
18200.00000	106.39384	-532.71569	106.39384
18250.00000	106.53414	-535.29134	106.53414
18300.00000	106.63398	-538.74868	106.63398
18350.00000	106.67990	-542.09555	106.67990
18400.00000	106.67406	-545.85466	106.67406
18450.00000	106.66218	-550.42935	106.66218
18500.00000	106.70801	-553.65870	106.70801
18550.00000	106.72696	-556.68382	106.72696
18600.00000	106.81549	-560.70108	106.81549
18650.00000	106.65125	-563.89227	106.65125
18700.00000	106.62332	-567.70040	106.62332
18750.00000	106.66506	-570.95545	106.66506
18800.00000	106.71149	-573.97107	106.71149
18850.00000	106.54465	-577.50507	106.54465
18900.00000	106.46406	-580.72671	106.46406
18950.00000	106.43692	-584.42167	106.43692
19000.00000	106.22540	-587.28925	106.22540
19050.00000	106.29376	-590.37769	106.29376
19100.00000	106.14939	-593.36520	106.14939
19150.00000	106.22674	-596.33862	106.22674
19200.00000	106.11001	-598.99453	106.11001
19250.00000	106.00562	-602.96359	106.00562
19300.00000	105.86896	-605.24590	105.86896
19350.00000	105.80769	-608.31647	105.80769
19400.00000	105.68495	-610.85825	105.68495
19450.00000	105.70193	-613.21699	105.70193
19500.00000	105.52454	-616.78357	105.52454
19550.00000	105.48915	-619.50352	105.48915
19600.00000	105.48389	-622.69114	105.48389
19650.00000	105.32099	-625.00317	105.32099
19700.00000	105.15455	-627.87020	105.15455
19750.00000	105.05296	-629.92028	105.05296
19800.00000	105.06394	-633.49615	105.06394
19850.00000	104.99834	-635.76964	104.99834
19900.00000	104.86381	-639.22263	104.86381
19950.00000	104.74298	-641.73853	104.74298
20000.00000	104.67107	-644.41492	104.67107
20050.00000	104.57695	-647.01704	104.57695
20100.00000	104.38970	-649.79010	104.38970
20150.00000	104.34636	-651.57888	104.34636
20200.00000	104.20043	-654.79136	104.20043
20250.00000	104.02146	-657.13153	104.02146
20300.00000	103.80177	-659.71697	103.80177
20350.00000	103.74700	-662.34773	103.74700
20400.00000	103.54342	-663.79833	103.54342
20450.00000	103.29638	-666.14369	103.29638
20500.00000	103.21415	-668.60111	103.21415
20550.00000	102.81621	-669.84019	102.81621
20600.00000	102.74925	-671.43095	102.74925
20650.00000	102.59338	-673.19352	102.59338
20700.00000	102.38257	-674.56812	102.38257
20750.00000	102.28351	-675.87906	102.28351
20800.00000	102.09952	-676.66802	102.09952
20850.00000	102.04237	-677.76530	102.04237
20900.00000	101.89159	-678.63762	101.89159
20950.00000	101.81335	-678.90730	101.81335
21000.00000	101.78297	-679.53079	101.78297
21050.00000	101.91051	-679.78341	101.91051
21100.00000	101.93178	-680.19047	101.93178
21150.00000	102.09426	-681.03975	102.09426
21200.00000	102.26875	-681.69979	102.26875
21250.00000	102.41753	-683.93156	102.41753
21300.00000	102.64304	-684.84909	102.64304
21350.00000	102.80379	-686.26472	102.80379
21400.00000	102.96413	-688.62578	102.96413
21450.00000	103.17090	-690.88980	103.17090
21500.00000	103.32119	-693.50399	103.32119
21550.00000	103.35119	-695.76700	103.35119
21600.00000	103.52417	-698.45954	103.52417
21650.00000	103.58997	-701.42056	103.58997
21700.00000	103.62821	-703.71611	103.62821
21750.00000	103.66885	-706.58951	103.66885
21800.00000	103.69511	-709.33792	103.69511
21850.00000	103.63453	-711.85274	103.63453
21900.00000	103.65173	-714.53375	103.65173
21950.00000	103.62638	-716.61234	103.62638
22000.00000	103.67461	-719.09126	103.67461
22050.00000	103.63241	-721.11661	103.63241
22100.00000	103.56927	-723.44580	103.56927
22150.00000	103.52914	-725.66376	103.52914
22200.00000	103.57554	-727.69987	103.57554
22250.00000	103.48989	-729.53974	103.48989
22300.00000	103.37950	-731.84810	103.37950
22350.00000	103.52218	-734.25235	103.52218
22400.00000	103.52968	-736.16211	103.52968
22450.00000	103.44390	-738.12326	103.44390
22500.00000	103.42818	-739.28426	103.42818
22550.00000	103.44524	-741.69456	103.44524
22600.00000	103.43156	-744.55432	103.43156
22650.00000	103.43664	-746.63072	103.43664
22700.00000	103.45538	-748.53104	103.45538
22750.00000	103.41158	-748.98016	103.41158
22800.00000	103.41150	-753.30424	103.41150
