---ACOUSTIC CALIBRATION---
Filename: C:\Data\AZH DATA\AZH71\RightSecondary.calib
Date: 8/27/2019 5:31:31 PM
Format: 4
Probe Tube Correction File: C:\Data\Probe Tube Calibrations\50_ProbeTube.calib
Experiment VIs: 850
EPL_CFTS.exe V12.0.1 (2012)
DAQmx V9.6

Attenuation (dB): 40.000000
Min Freq (Hz): 50.000000
Max Freq (Hz): 49950.000000
Freq Step (Hz): 50.000000
Sample Rate (Hz): 100000.000000
[Smoothing]
Method=None
MA.Iterations=0
MA.Length=0
Loess.Length=0
Loess.Type=Linear
Loess.Robust=FALSE


Freq(Hz)	Mag(dB)	Phase(deg)	Unsmoothed(dB)

50.00000	99.64174	596.23913	99.64174
100.00000	81.59591	581.48031	81.59591
150.00000	78.77224	498.06101	78.77224
200.00000	80.46868	406.19482	80.46868
250.00000	90.81433	390.47133	90.81433
300.00000	89.80774	302.41712	89.80774
350.00000	83.38222	302.21180	83.38222
400.00000	88.42987	312.04692	88.42987
450.00000	85.95588	273.46684	85.95588
500.00000	84.82332	324.18277	84.82332
550.00000	89.69009	322.87711	89.69009
600.00000	90.66824	333.16841	90.66824
650.00000	94.13530	322.82866	94.13530
700.00000	96.23688	318.00551	96.23688
750.00000	98.53008	312.72688	98.53008
800.00000	101.41739	307.10600	101.41739
850.00000	103.33360	294.72445	103.33360
900.00000	104.93408	277.87290	104.93408
950.00000	106.17956	261.39606	106.17956
1000.00000	106.24937	243.12517	106.24937
1050.00000	105.73516	233.24889	105.73516
1100.00000	105.87582	222.56682	105.87582
1150.00000	105.05000	213.48267	105.05000
1200.00000	104.93311	209.58085	104.93311
1250.00000	105.00772	200.81787	105.00772
1300.00000	104.46696	194.15992	104.46696
1350.00000	103.75355	188.50153	103.75355
1400.00000	102.99869	188.65871	102.99869
1450.00000	102.93745	188.41722	102.93745
1500.00000	102.76715	185.83694	102.76715
1550.00000	103.02089	184.79672	103.02089
1600.00000	103.78690	182.88818	103.78690
1650.00000	104.66393	174.31499	104.66393
1700.00000	103.35962	171.13681	103.35962
1750.00000	103.40837	169.81487	103.40837
1800.00000	103.31785	168.69178	103.31785
1850.00000	103.08116	169.06817	103.08116
1900.00000	104.01257	170.41257	104.01257
1950.00000	104.91884	161.74790	104.91884
2000.00000	104.73397	151.70997	104.73397
2050.00000	103.78578	148.57182	103.78578
2100.00000	103.14117	146.14059	103.14117
2150.00000	103.38678	142.82619	103.38678
2200.00000	102.90053	139.44111	102.90053
2250.00000	102.06142	139.23518	102.06142
2300.00000	102.06640	140.28159	102.06640
2350.00000	101.85017	142.11438	101.85017
2400.00000	102.04084	142.98815	102.04084
2450.00000	102.19466	140.47010	102.19466
2500.00000	101.95266	140.45841	101.95266
2550.00000	101.59038	142.67253	101.59038
2600.00000	101.70759	146.83268	101.70759
2650.00000	102.59773	151.70557	102.59773
2700.00000	103.97571	152.66587	103.97571
2750.00000	105.40950	145.99428	105.40950
2800.00000	106.06623	136.94230	106.06623
2850.00000	106.06211	129.03800	106.06211
2900.00000	105.84636	123.00490	105.84636
2950.00000	105.52008	118.90272	105.52008
3000.00000	105.30515	114.81976	105.30515
3050.00000	105.00974	111.93790	105.00974
3100.00000	104.90553	109.16474	104.90553
3150.00000	104.62648	104.13529	104.62648
3200.00000	104.01054	100.20489	104.01054
3250.00000	103.32282	97.78850	103.32282
3300.00000	102.48166	94.26614	102.48166
3350.00000	101.20988	93.59100	101.20988
3400.00000	99.82287	98.86119	99.82287
3450.00000	99.02946	107.27805	99.02946
3500.00000	99.03610	117.49091	99.03610
3550.00000	99.60695	124.59837	99.60695
3600.00000	100.41056	128.96569	100.41056
3650.00000	100.76707	130.40200	100.76707
3700.00000	100.68610	133.56409	100.68610
3750.00000	100.54624	142.63986	100.54624
3800.00000	101.53202	154.10085	101.53202
3850.00000	103.23132	161.59959	103.23132
3900.00000	105.26810	164.72730	105.26810
3950.00000	107.21272	163.69186	107.21272
4000.00000	108.78203	160.47037	108.78203
4050.00000	110.07660	156.36978	110.07660
4100.00000	111.14618	152.85266	111.14618
4150.00000	112.33174	149.45107	112.33174
4200.00000	113.22079	145.36481	113.22079
4250.00000	114.14574	141.46119	114.14574
4300.00000	115.04290	137.82589	115.04290
4350.00000	115.89254	134.29710	115.89254
4400.00000	116.82911	131.62114	116.82911
4450.00000	117.91992	128.77399	117.91992
4500.00000	119.17878	125.05000	119.17878
4550.00000	120.53289	120.20275	120.53289
4600.00000	121.90288	113.96240	121.90288
4650.00000	123.32733	106.25062	123.32733
4700.00000	124.69832	96.52220	124.69832
4750.00000	125.93555	84.84966	125.93555
4800.00000	126.93002	71.08299	126.93002
4850.00000	127.53204	55.89732	127.53204
4900.00000	127.65191	39.99796	127.65191
4950.00000	127.25082	24.66073	127.25082
5000.00000	126.31789	11.35810	126.31789
5050.00000	125.20681	 1.67918	125.20681
5100.00000	124.02209	-8.17852	124.02209
5150.00000	121.57194	-13.17653	121.57194
5200.00000	119.55587	 2.13456	119.55587
5250.00000	122.22069	16.07012	122.22069
5300.00000	124.66467	 5.31417	124.66467
5350.00000	125.36874	-8.86323	125.36874
5400.00000	125.32666	-20.98166	125.32666
5450.00000	124.99161	-30.84719	124.99161
5500.00000	124.55044	-39.24177	124.55044
5550.00000	124.08000	-46.38921	124.08000
5600.00000	123.60171	-52.83982	123.60171
5650.00000	123.14213	-58.60927	123.14213
5700.00000	122.67079	-64.19847	122.67079
5750.00000	122.23551	-69.08773	122.23551
5800.00000	121.78569	-73.85605	121.78569
5850.00000	121.37195	-78.37884	121.37195
5900.00000	120.97407	-82.63845	120.97407
5950.00000	120.58652	-86.66008	120.58652
6000.00000	120.20638	-90.52203	120.20638
6050.00000	119.83048	-94.42926	119.83048
6100.00000	119.46814	-98.20497	119.46814
6150.00000	119.10828	-101.87805	119.10828
6200.00000	118.73581	-105.36197	118.73581
6250.00000	118.38765	-108.71209	118.38765
6300.00000	118.05177	-112.03012	118.05177
6350.00000	117.69941	-115.32480	117.69941
6400.00000	117.36386	-118.46735	117.36386
6450.00000	117.04752	-121.56127	117.04752
6500.00000	116.69796	-124.51481	116.69796
6550.00000	116.35746	-127.28435	116.35746
6600.00000	116.01941	-130.09337	116.01941
6650.00000	115.68113	-132.69680	115.68113
6700.00000	115.34557	-135.39186	115.34557
6750.00000	115.00643	-137.78970	115.00643
6800.00000	114.68445	-139.96614	114.68445
6850.00000	114.35437	-142.07593	114.35437
6900.00000	114.05036	-144.02432	114.05036
6950.00000	113.75218	-145.89801	113.75218
7000.00000	113.49539	-147.57201	113.49539
7050.00000	113.25582	-149.27566	113.25582
7100.00000	113.04580	-150.89379	113.04580
7150.00000	112.85704	-152.40244	112.85704
7200.00000	112.66979	-154.00962	112.66979
7250.00000	112.46131	-155.62812	112.46131
7300.00000	112.35530	-156.80440	112.35530
7350.00000	112.21139	-158.20115	112.21139
7400.00000	112.12644	-159.65846	112.12644
7450.00000	112.03688	-161.14803	112.03688
7500.00000	112.01515	-162.59923	112.01515
7550.00000	112.00243	-164.24522	112.00243
7600.00000	111.97297	-165.96073	111.97297
7650.00000	111.98889	-167.93293	111.98889
7700.00000	112.05035	-170.08022	112.05035
7750.00000	112.03711	-172.47936	112.03711
7800.00000	112.06388	-175.03878	112.06388
7850.00000	112.06928	-177.68155	112.06928
7900.00000	112.08906	-180.51020	112.08906
7950.00000	112.07262	-183.76629	112.07262
8000.00000	112.01064	-187.00066	112.01064
8050.00000	111.92478	-190.53558	111.92478
8100.00000	111.82889	-193.41743	111.82889
8150.00000	111.64311	-196.62166	111.64311
8200.00000	111.49009	-199.55537	111.49009
8250.00000	111.26812	-202.77549	111.26812
8300.00000	111.07644	-205.63373	111.07644
8350.00000	110.86397	-208.23051	110.86397
8400.00000	110.63818	-211.25454	110.63818
8450.00000	110.33201	-213.83828	110.33201
8500.00000	110.07450	-216.25560	110.07450
8550.00000	109.84031	-218.37460	109.84031
8600.00000	109.55774	-220.84996	109.55774
8650.00000	109.27836	-222.79231	109.27836
8700.00000	109.01726	-225.35679	109.01726
8750.00000	108.72039	-226.46578	108.72039
8800.00000	108.48587	-228.69410	108.48587
8850.00000	108.22626	-230.63726	108.22626
8900.00000	108.01516	-232.18542	108.01516
8950.00000	107.82579	-234.12686	107.82579
9000.00000	107.57406	-235.93000	107.57406
9050.00000	107.45370	-237.46929	107.45370
9100.00000	107.36366	-238.78392	107.36366
9150.00000	107.26694	-240.21310	107.26694
9200.00000	107.20149	-241.77490	107.20149
9250.00000	107.07499	-242.90050	107.07499
9300.00000	107.02061	-244.28650	107.02061
9350.00000	106.96425	-245.77803	106.96425
9400.00000	106.77609	-246.72642	106.77609
9450.00000	106.70444	-248.18740	106.70444
9500.00000	106.64490	-249.39284	106.64490
9550.00000	106.57306	-250.74211	106.57306
9600.00000	106.64215	-252.50549	106.64215
9650.00000	106.66373	-254.75368	106.66373
9700.00000	106.72795	-255.98174	106.72795
9750.00000	106.84965	-258.38892	106.84965
9800.00000	106.91153	-259.51541	106.91153
9850.00000	106.96133	-260.68518	106.96133
9900.00000	106.84613	-262.34896	106.84613
9950.00000	106.82072	-263.40507	106.82072
10000.00000	106.76934	-265.50861	106.76934
10050.00000	106.64458	-267.49353	106.64458
10100.00000	106.52798	-269.76335	106.52798
10150.00000	106.37254	-273.16290	106.37254
10200.00000	106.36776	-276.21740	106.36776
10250.00000	106.32217	-279.64873	106.32217
10300.00000	106.43569	-282.61374	106.43569
10350.00000	106.45146	-285.23517	106.45146
10400.00000	106.41537	-287.78983	106.41537
10450.00000	106.48993	-290.38624	106.48993
10500.00000	106.46718	-292.57715	106.46718
10550.00000	106.38565	-295.05911	106.38565
10600.00000	106.22564	-297.70665	106.22564
10650.00000	106.05429	-300.26122	106.05429
10700.00000	105.93081	-304.38208	105.93081
10750.00000	105.86728	-307.96386	105.86728
10800.00000	105.73489	-311.17220	105.73489
10850.00000	105.65111	-315.32663	105.65111
10900.00000	105.54791	-317.94779	105.54791
10950.00000	105.40580	-320.23614	105.40580
11000.00000	105.20059	-322.67172	105.20059
11050.00000	104.74309	-325.10064	104.74309
11100.00000	104.40114	-328.11508	104.40114
11150.00000	103.91180	-330.80388	103.91180
11200.00000	103.59910	-333.62077	103.59910
11250.00000	103.16337	-336.80105	103.16337
11300.00000	102.80051	-339.46173	102.80051
11350.00000	102.51608	-341.02742	102.51608
11400.00000	102.11123	-342.53108	102.11123
11450.00000	101.76412	-343.90913	101.76412
11500.00000	101.50798	-343.86702	101.50798
11550.00000	101.03983	-344.36042	101.03983
11600.00000	100.74073	-346.02514	100.74073
11650.00000	100.38252	-345.99565	100.38252
11700.00000	100.18834	-347.33704	100.18834
11750.00000	100.05925	-348.46177	100.05925
11800.00000	99.98318	-349.68695	99.98318
11850.00000	99.95740	-349.28032	99.95740
11900.00000	99.70937	-350.11752	99.70937
11950.00000	99.61865	-350.29114	99.61865
12000.00000	99.37155	-350.36515	99.37155
12050.00000	99.12316	-350.96770	99.12316
12100.00000	98.93987	-353.35607	98.93987
12150.00000	98.73735	-355.46814	98.73735
12200.00000	98.70822	-357.48992	98.70822
12250.00000	98.64521	-358.57206	98.64521
12300.00000	99.68318	-360.26022	99.68318
12350.00000	98.46306	-360.99109	98.46306
12400.00000	98.25835	-360.74093	98.25835
12450.00000	97.96985	-361.03729	97.96985
12500.00000	97.68416	-362.13795	97.68416
12550.00000	97.43298	-363.68044	97.43298
12600.00000	97.17201	-364.99166	97.17201
12650.00000	97.18717	-366.18275	97.18717
12700.00000	96.96077	-366.95015	96.96077
12750.00000	96.87120	-367.82054	96.87120
12800.00000	96.69136	-367.25697	96.69136
12850.00000	96.22276	-367.32816	96.22276
12900.00000	96.16250	-368.00559	96.16250
12950.00000	96.02304	-369.12073	96.02304
13000.00000	95.82514	-370.61177	95.82514
13050.00000	95.95849	-370.31310	95.95849
13100.00000	95.83709	-371.20252	95.83709
13150.00000	95.83987	-371.93340	95.83987
13200.00000	95.64807	-370.16900	95.64807
13250.00000	95.55316	-370.89957	95.55316
13300.00000	95.22939	-369.46802	95.22939
13350.00000	95.06660	-371.64461	95.06660
13400.00000	95.11815	-373.27290	95.11815
13450.00000	94.85924	-373.16238	94.85924
13500.00000	95.10971	-372.97346	95.10971
13550.00000	94.83046	-373.01686	94.83046
13600.00000	94.71858	-371.71021	94.71858
13650.00000	94.62548	-370.93937	94.62548
13700.00000	94.30487	-370.51084	94.30487
13750.00000	93.98959	-370.68610	93.98959
13800.00000	93.83001	-372.43161	93.83001
13850.00000	93.83365	-373.15421	93.83365
13900.00000	93.75046	-373.22187	93.75046
13950.00000	93.84004	-372.67728	93.84004
14000.00000	94.02497	-370.42181	94.02497
14050.00000	94.17310	-370.08966	94.17310
14100.00000	93.86511	-368.20767	93.86511
14150.00000	94.11230	-367.59031	94.11230
14200.00000	94.26430	-366.40729	94.26430
14250.00000	94.56779	-364.56277	94.56779
14300.00000	94.54752	-363.68497	94.54752
14350.00000	94.58837	-361.41233	94.58837
14400.00000	94.27779	-360.58236	94.27779
14450.00000	94.50539	-359.86771	94.50539
14500.00000	94.68900	-360.62010	94.68900
14550.00000	95.18278	-358.77468	95.18278
14600.00000	95.39653	-358.76497	95.39653
14650.00000	96.04829	-355.22559	96.04829
14700.00000	96.40641	-357.63081	96.40641
14750.00000	96.69643	-357.16986	96.69643
14800.00000	96.91170	-355.92690	96.91170
14850.00000	97.41880	-355.46095	97.41880
14900.00000	97.86617	-356.43894	97.86617
14950.00000	98.30796	-357.43173	98.30796
15000.00000	98.80947	-358.61961	98.80947
15050.00000	99.09988	-358.06504	99.09988
15100.00000	99.60602	-358.33222	99.60602
15150.00000	100.25409	-359.76481	100.25409
15200.00000	100.57768	-358.76532	100.57768
15250.00000	100.86976	-360.33889	100.86976
15300.00000	101.46571	-361.45098	101.46571
15350.00000	101.79534	-364.33068	101.79534
15400.00000	102.17233	-364.96870	102.17233
15450.00000	102.62331	-367.28579	102.62331
15500.00000	103.17002	-369.28091	103.17002
15550.00000	103.65832	-372.09231	103.65832
15600.00000	104.12314	-374.84800	104.12314
15650.00000	104.69593	-375.75578	104.69593
15700.00000	105.00105	-379.36935	105.00105
15750.00000	105.44257	-381.13769	105.44257
15800.00000	105.76762	-383.16716	105.76762
15850.00000	106.08376	-386.35424	106.08376
15900.00000	106.34717	-389.87469	106.34717
15950.00000	106.75931	-393.01219	106.75931
16000.00000	107.05608	-395.85998	107.05608
16050.00000	107.40264	-398.89643	107.40264
16100.00000	107.50607	-402.90850	107.50607
16150.00000	107.79315	-405.79502	107.79315
16200.00000	108.07062	-409.61527	108.07062
16250.00000	108.28543	-412.14749	108.28543
16300.00000	108.58982	-415.03304	108.58982
16350.00000	108.68623	-418.33791	108.68623
16400.00000	108.83173	-421.34077	108.83173
16450.00000	108.99734	-424.31654	108.99734
16500.00000	109.15494	-427.62490	109.15494
16550.00000	109.32488	-431.11960	109.32488
16600.00000	109.48501	-433.74985	109.48501
16650.00000	109.58653	-436.40082	109.58653
16700.00000	109.72567	-438.53094	109.72567
16750.00000	109.72710	-441.57923	109.72710
16800.00000	109.89222	-444.54112	109.89222
16850.00000	110.08162	-447.22343	110.08162
16900.00000	110.25634	-449.86631	110.25634
16950.00000	110.38394	-452.28491	110.38394
17000.00000	110.37844	-455.02149	110.37844
17050.00000	110.58069	-457.16379	110.58069
17100.00000	110.65862	-458.72591	110.65862
17150.00000	110.98327	-462.18029	110.98327
17200.00000	111.15389	-464.44743	111.15389
17250.00000	111.23607	-467.53044	111.23607
17300.00000	111.45479	-470.22827	111.45479
17350.00000	111.51382	-472.73946	111.51382
17400.00000	111.78686	-475.56447	111.78686
17450.00000	111.87159	-478.81672	111.87159
17500.00000	112.07212	-481.62569	112.07212
17550.00000	112.23268	-484.71025	112.23268
17600.00000	112.47579	-487.42623	112.47579
17650.00000	112.60114	-491.31444	112.60114
17700.00000	112.73987	-494.42035	112.73987
17750.00000	112.96353	-497.04842	112.96353
17800.00000	112.99353	-500.85735	112.99353
17850.00000	113.12588	-503.68265	113.12588
17900.00000	113.19375	-507.06529	113.19375
17950.00000	113.36719	-510.83581	113.36719
18000.00000	113.45871	-514.66702	113.45871
18050.00000	113.67708	-517.46041	113.67708
18100.00000	113.67953	-521.34075	113.67953
18150.00000	113.71289	-524.20886	113.71289
18200.00000	113.71317	-528.29624	113.71317
18250.00000	113.84868	-530.96235	113.84868
18300.00000	113.97333	-534.54389	113.97333
18350.00000	113.98588	-537.66198	113.98588
18400.00000	113.96969	-541.32235	113.96969
18450.00000	113.95597	-545.91763	113.95597
18500.00000	114.01156	-549.14232	114.01156
18550.00000	114.00383	-551.96149	114.00383
18600.00000	114.09221	-555.88213	114.09221
18650.00000	113.97137	-558.88615	113.97137
18700.00000	113.94881	-562.76283	113.94881
18750.00000	114.01091	-566.14420	114.01091
18800.00000	114.10464	-568.93941	114.10464
18850.00000	113.97746	-572.51099	113.97746
18900.00000	113.94563	-575.89597	113.94563
18950.00000	113.92285	-579.77775	113.92285
19000.00000	113.75119	-582.79425	113.75119
19050.00000	113.85533	-586.27377	113.85533
19100.00000	113.75152	-589.43544	113.75152
19150.00000	113.82584	-592.64095	113.82584
19200.00000	113.71958	-595.76186	113.71958
19250.00000	113.65075	-600.20372	113.65075
19300.00000	113.51095	-602.88939	113.51095
19350.00000	113.45058	-606.27041	113.45058
19400.00000	113.32061	-609.37859	113.32061
19450.00000	113.30895	-612.21272	113.30895
19500.00000	113.15474	-616.39809	113.15474
19550.00000	113.04864	-619.46441	113.04864
19600.00000	113.00789	-623.12856	113.00789
19650.00000	112.82424	-625.81651	112.82424
19700.00000	112.58605	-629.22889	112.58605
19750.00000	112.44492	-631.80428	112.44492
19800.00000	112.40123	-635.70121	112.40123
19850.00000	112.27180	-638.40864	112.27180
19900.00000	112.05390	-642.15352	112.05390
19950.00000	111.87250	-645.04083	111.87250
20000.00000	111.70219	-647.99638	111.70219
20050.00000	111.55248	-650.90596	111.55248
20100.00000	111.29677	-653.75903	111.29677
20150.00000	111.17278	-655.74472	111.17278
20200.00000	110.91998	-659.24248	110.91998
20250.00000	110.67654	-661.87921	110.67654
20300.00000	110.40149	-664.54420	110.40149
20350.00000	110.26303	-667.16035	110.26303
20400.00000	109.97612	-668.81085	109.97612
20450.00000	109.65030	-671.27894	109.65030
20500.00000	109.49856	-673.87322	109.49856
20550.00000	109.04189	-675.14606	109.04189
20600.00000	108.88380	-676.82666	108.88380
20650.00000	108.63128	-678.62418	108.63128
20700.00000	108.33506	-680.20832	108.33506
20750.00000	108.17119	-681.48062	108.17119
20800.00000	107.91423	-682.42537	107.91423
20850.00000	107.76869	-683.56124	107.76869
20900.00000	107.49441	-684.42553	107.49441
20950.00000	107.31264	-684.87868	107.31264
21000.00000	107.18077	-685.40366	107.18077
21050.00000	107.20198	-685.56344	107.20198
21100.00000	107.07773	-685.70119	107.07773
21150.00000	107.09766	-686.48734	107.09766
21200.00000	107.13458	-686.74816	107.13458
21250.00000	107.15742	-688.45520	107.15742
21300.00000	107.26266	-688.47133	107.26266
21350.00000	107.29162	-689.32181	107.29162
21400.00000	107.34661	-690.83553	107.34661
21450.00000	107.44213	-692.16826	107.44213
21500.00000	107.55827	-693.90440	107.55827
21550.00000	107.52921	-694.85959	107.52921
21600.00000	107.65515	-696.57686	107.65515
21650.00000	107.66885	-698.51473	107.66885
21700.00000	107.75416	-699.95375	107.75416
21750.00000	107.81225	-701.51571	107.81225
21800.00000	107.86068	-703.19657	107.86068
21850.00000	107.81080	-704.84316	107.81080
21900.00000	107.91974	-706.78839	107.91974
21950.00000	107.94902	-708.17037	107.94902
22000.00000	108.04129	-709.71776	108.04129
22050.00000	108.03008	-710.87695	108.03008
22100.00000	108.03207	-712.93784	108.03207
22150.00000	108.07965	-714.63433	108.07965
22200.00000	108.20717	-716.33028	108.20717
22250.00000	108.18765	-717.33438	108.18765
22300.00000	108.07649	-719.10584	108.07649
22350.00000	108.24611	-721.12082	108.24611
22400.00000	108.30207	-722.95506	108.30207
22450.00000	108.31228	-724.25735	108.31228
22500.00000	108.24971	-724.68616	108.24971
22550.00000	108.25234	-726.73214	108.25234
22600.00000	108.27839	-729.19612	108.27839
22650.00000	108.39102	-730.53689	108.39102
