---ACOUSTIC CALIBRATION---
Filename: C:\Data\AZH DATA\AZH71\RightPrimary.calib
Date: 8/27/2019 5:31:23 PM
Format: 4
Probe Tube Correction File: C:\Data\Probe Tube Calibrations\50_ProbeTube.calib
Experiment VIs: 850
EPL_CFTS.exe V12.0.1 (2012)
DAQmx V9.6

Attenuation (dB): 40.000000
Min Freq (Hz): 50.000000
Max Freq (Hz): 49950.000000
Freq Step (Hz): 50.000000
Sample Rate (Hz): 100000.000000
[Smoothing]
Method=None
MA.Iterations=0
MA.Length=0
Loess.Length=0
Loess.Type=Linear
Loess.Robust=FALSE


Freq(Hz)	Mag(dB)	Phase(deg)	Unsmoothed(dB)

50.00000	100.89333	471.14084	100.89333
100.00000	75.95675	431.91667	75.95675
150.00000	80.38720	491.69058	80.38720
200.00000	83.37503	456.76132	83.37503
250.00000	89.45491	428.48702	89.45491
300.00000	89.37929	379.01172	89.37929
350.00000	85.62044	382.97845	85.62044
400.00000	88.14513	351.21576	88.14513
450.00000	87.74247	348.51465	87.74247
500.00000	90.64673	357.91956	90.64673
550.00000	93.05738	355.55544	93.05738
600.00000	95.33378	353.75033	95.33378
650.00000	97.86110	339.71354	97.86110
700.00000	100.29130	323.25911	100.29130
750.00000	101.94901	310.65280	101.94901
800.00000	102.87152	288.82984	102.87152
850.00000	102.44044	271.75889	102.44044
900.00000	101.40344	256.64695	101.40344
950.00000	99.53653	251.07789	99.53653
1000.00000	97.82086	250.52713	97.82086
1050.00000	96.21840	262.21355	96.21840
1100.00000	96.70772	281.58626	96.70772
1150.00000	99.46583	290.09691	99.46583
1200.00000	102.02496	292.10947	102.02496
1250.00000	104.15113	285.61302	104.15113
1300.00000	105.80437	280.13862	105.80437
1350.00000	107.31254	271.64450	107.31254
1400.00000	108.26438	263.69165	108.26438
1450.00000	109.21441	257.37760	109.21441
1500.00000	110.39377	251.74043	110.39377
1550.00000	111.09089	243.28526	111.09089
1600.00000	112.67745	234.16849	112.67745
1650.00000	113.81646	217.55038	113.81646
1700.00000	112.69287	207.54520	112.69287
1750.00000	112.48465	201.62657	112.48465
1800.00000	112.32104	196.20287	112.32104
1850.00000	112.38229	194.08734	112.38229
1900.00000	113.33885	190.59703	113.33885
1950.00000	114.12807	178.41598	114.12807
2000.00000	113.33562	165.82149	113.33562
2050.00000	111.85723	167.59205	111.85723
2100.00000	113.45913	169.71658	113.45913
2150.00000	114.28024	159.83961	114.28024
2200.00000	114.27137	149.60610	114.27137
2250.00000	113.74373	142.61499	113.74373
2300.00000	113.84939	136.69784	113.84939
2350.00000	113.60745	130.33414	113.60745
2400.00000	113.37360	124.77975	113.37360
2450.00000	113.07890	118.30632	113.07890
2500.00000	112.73886	113.10403	112.73886
2550.00000	112.29638	107.98383	112.29638
2600.00000	111.82151	103.40095	111.82151
2650.00000	111.36841	99.64732	111.36841
2700.00000	110.84509	95.55814	110.84509
2750.00000	110.38035	92.32883	110.38035
2800.00000	109.81437	89.47392	109.81437
2850.00000	109.27558	87.30846	109.27558
2900.00000	108.71090	84.80436	108.71090
2950.00000	108.15626	83.75144	108.15626
3000.00000	107.59402	81.87508	107.59402
3050.00000	106.98703	81.20894	106.98703
3100.00000	106.49915	80.76286	106.49915
3150.00000	105.66284	78.44349	105.66284
3200.00000	104.35947	79.56099	104.35947
3250.00000	103.14435	85.07980	103.14435
3300.00000	102.06584	92.17061	102.06584
3350.00000	100.98565	105.45103	100.98565
3400.00000	101.30660	126.56809	101.30660
3450.00000	103.48876	142.81982	103.48876
3500.00000	106.26575	149.55297	106.26575
3550.00000	108.62978	149.59588	108.62978
3600.00000	110.71153	147.11748	110.71153
3650.00000	112.35924	142.30614	112.35924
3700.00000	113.74281	137.77862	113.74281
3750.00000	115.05116	133.07513	115.05116
3800.00000	116.28496	127.59228	116.28496
3850.00000	117.40570	121.80230	117.40570
3900.00000	118.47866	115.88740	118.47866
3950.00000	119.53589	109.25368	119.53589
4000.00000	120.46851	102.17138	120.46851
4050.00000	121.35197	95.27273	121.35197
4100.00000	122.28457	88.23771	122.28457
4150.00000	123.40720	80.23839	123.40720
4200.00000	124.26111	70.60628	124.26111
4250.00000	125.10899	59.63715	125.10899
4300.00000	125.72617	47.34220	125.72617
4350.00000	126.01029	34.35302	126.01029
4400.00000	125.98312	21.86252	125.98312
4450.00000	125.73326	10.22704	125.73326
4500.00000	125.32268	-0.19427	125.32268
4550.00000	124.86459	-9.99351	124.86459
4600.00000	124.32820	-18.80900	124.32820
4650.00000	123.85062	-26.97921	123.85062
4700.00000	123.33686	-35.36050	123.33686
4750.00000	122.72570	-43.89706	122.72570
4800.00000	121.95324	-52.63857	121.95324
4850.00000	120.93565	-60.87941	120.93565
4900.00000	119.64007	-67.62669	119.64007
4950.00000	118.18434	-71.86076	118.18434
5000.00000	116.74868	-73.11581	116.74868
5050.00000	115.57439	-73.04007	115.57439
5100.00000	114.31105	-70.23588	114.31105
5150.00000	113.91801	-63.55932	113.91801
5200.00000	113.22575	-61.76395	113.22575
5250.00000	113.28105	-46.81489	113.28105
5300.00000	116.28704	-44.34902	116.28704
5350.00000	117.58992	-58.78048	117.58992
5400.00000	117.25606	-69.94044	117.25606
5450.00000	116.64091	-76.09388	116.64091
5500.00000	116.12993	-80.02236	116.12993
5550.00000	115.73794	-82.89743	115.73794
5600.00000	115.44425	-85.48510	115.44425
5650.00000	115.20647	-87.96511	115.20647
5700.00000	114.98350	-90.57149	114.98350
5750.00000	114.80602	-92.82898	114.80602
5800.00000	114.64179	-95.26033	114.64179
5850.00000	114.49353	-97.75200	114.49353
5900.00000	114.36089	-100.25736	114.36089
5950.00000	114.21963	-102.71918	114.21963
6000.00000	114.09981	-105.06423	114.09981
6050.00000	113.96615	-107.43045	113.96615
6100.00000	113.86173	-109.88451	113.86173
6150.00000	113.75925	-112.12961	113.75925
6200.00000	113.66641	-114.52451	113.66641
6250.00000	113.59746	-116.92145	113.59746
6300.00000	113.54283	-119.49982	113.54283
6350.00000	113.47178	-122.18529	113.47178
6400.00000	113.39820	-124.77709	113.39820
6450.00000	113.33050	-127.54750	113.33050
6500.00000	113.23191	-130.32662	113.23191
6550.00000	113.14112	-132.97632	113.14112
6600.00000	113.06156	-135.56465	113.06156
6650.00000	112.98398	-138.23944	112.98398
6700.00000	112.91208	-140.93027	112.91208
6750.00000	112.84169	-143.55807	112.84169
6800.00000	112.78487	-146.21068	112.78487
6850.00000	112.71928	-148.84107	112.71928
6900.00000	112.66199	-151.52406	112.66199
6950.00000	112.61022	-154.25839	112.61022
7000.00000	112.56110	-156.97742	112.56110
7050.00000	112.51325	-159.82107	112.51325
7100.00000	112.48051	-162.81442	112.48051
7150.00000	112.43771	-165.71431	112.43771
7200.00000	112.37304	-168.82906	112.37304
7250.00000	112.29445	-172.00164	112.29445
7300.00000	112.24867	-175.13847	112.24867
7350.00000	112.16983	-178.40251	112.16983
7400.00000	112.09253	-181.84001	112.09253
7450.00000	111.98054	-185.37724	111.98054
7500.00000	111.84575	-188.53473	111.84575
7550.00000	111.72771	-192.15038	111.72771
7600.00000	111.56527	-195.54447	111.56527
7650.00000	111.39609	-199.03031	111.39609
7700.00000	111.25403	-202.44478	111.25403
7750.00000	111.01890	-205.82131	111.01890
7800.00000	110.81814	-209.02464	110.81814
7850.00000	110.59316	-212.22390	110.59316
7900.00000	110.39023	-215.17740	110.39023
7950.00000	110.16539	-218.32166	110.16539
8000.00000	109.94623	-221.38397	109.94623
8050.00000	109.71499	-224.55589	109.71499
8100.00000	109.46997	-226.90277	109.46997
8150.00000	109.18076	-229.63151	109.18076
8200.00000	108.90093	-231.89124	108.90093
8250.00000	108.60233	-234.57843	108.60233
8300.00000	108.29454	-237.08784	108.29454
8350.00000	107.97712	-239.31543	107.97712
8400.00000	107.65258	-242.15614	107.65258
8450.00000	107.27705	-244.65856	107.27705
8500.00000	106.94202	-247.29015	106.94202
8550.00000	106.66915	-249.61888	106.66915
8600.00000	106.39342	-252.31617	106.39342
8650.00000	106.13781	-254.52673	106.13781
8700.00000	105.91652	-257.26835	105.91652
8750.00000	105.68631	-257.96105	105.68631
8800.00000	105.49544	-259.79752	105.49544
8850.00000	105.22156	-261.05807	105.22156
8900.00000	104.98897	-261.85187	104.98897
8950.00000	104.69957	-263.00894	104.69957
9000.00000	104.33265	-264.01533	104.33265
9050.00000	104.00849	-265.72527	104.00849
9100.00000	103.66073	-267.29900	103.66073
9150.00000	103.31751	-269.11594	103.31751
9200.00000	103.06616	-271.34644	103.06616
9250.00000	102.79667	-273.63728	102.79667
9300.00000	102.68846	-275.67575	102.68846
9350.00000	102.63368	-277.61051	102.63368
9400.00000	102.54027	-278.60775	102.54027
9450.00000	102.52003	-279.26602	102.52003
9500.00000	102.46578	-278.77810	102.46578
9550.00000	102.47498	-277.85870	102.47498
9600.00000	102.55141	-278.13619	102.55141
9650.00000	102.40918	-279.14099	102.40918
9700.00000	102.21966	-279.45283	102.21966
9750.00000	102.08952	-281.33751	102.08952
9800.00000	101.89606	-282.55062	101.89606
9850.00000	101.81560	-284.15001	101.81560
9900.00000	101.65620	-286.37202	101.65620
9950.00000	101.74455	-287.82715	101.74455
10000.00000	101.85232	-289.86071	101.85232
10050.00000	101.92252	-291.15034	101.92252
10100.00000	101.97555	-292.10553	101.97555
10150.00000	101.91336	-293.70619	101.91336
10200.00000	101.90481	-294.94238	101.90481
10250.00000	101.76574	-296.79581	101.76574
10300.00000	101.75270	-298.89259	101.75270
10350.00000	101.60981	-301.21496	101.60981
10400.00000	101.47568	-304.36881	101.47568
10450.00000	101.53899	-307.63687	101.53899
10500.00000	101.63180	-310.47799	101.63180
10550.00000	101.67141	-313.62435	101.67141
10600.00000	101.68705	-316.02671	101.68705
10650.00000	101.66941	-317.91333	101.66941
10700.00000	101.62242	-320.96217	101.62242
10750.00000	101.53545	-323.36036	101.53545
10800.00000	101.31961	-325.69372	101.31961
10850.00000	101.10493	-329.36596	101.10493
10900.00000	100.90694	-332.17334	100.90694
10950.00000	100.70973	-334.92636	100.70973
11000.00000	100.53033	-337.90126	100.53033
11050.00000	100.19769	-340.58543	100.19769
11100.00000	99.96395	-343.32608	99.96395
11150.00000	99.60122	-345.38201	99.60122
11200.00000	99.33698	-347.11064	99.33698
11250.00000	98.92061	-349.21949	98.92061
11300.00000	98.50380	-351.07426	98.50380
11350.00000	98.12091	-352.49178	98.12091
11400.00000	97.66010	-354.11083	97.66010
11450.00000	97.34301	-356.02720	97.34301
11500.00000	97.14114	-356.52749	97.14114
11550.00000	96.78931	-357.20950	96.78931
11600.00000	96.63081	-358.63472	96.63081
11650.00000	96.35278	-358.10616	96.35278
11700.00000	96.19772	-358.39876	96.19772
11750.00000	96.02562	-358.86386	96.02562
11800.00000	95.85731	-359.61845	95.85731
11850.00000	95.76228	-359.22330	95.76228
11900.00000	95.48024	-360.23737	95.48024
11950.00000	95.38949	-360.31423	95.38949
12000.00000	95.25524	-360.35555	95.25524
12050.00000	95.07061	-360.73898	95.07061
12100.00000	95.05781	-362.48967	95.05781
12150.00000	94.94954	-363.59717	94.94954
12200.00000	94.97629	-364.99562	94.97629
12250.00000	94.93612	-365.50143	94.93612
12300.00000	96.04173	-366.70185	96.04173
12350.00000	94.86885	-367.56381	94.86885
12400.00000	94.78220	-367.51720	94.78220
12450.00000	94.67515	-368.05680	94.67515
12500.00000	94.54714	-369.34378	94.54714
12550.00000	94.46013	-370.70656	94.46013
12600.00000	94.28824	-372.64873	94.28824
12650.00000	94.40428	-374.17502	94.40428
12700.00000	94.24106	-375.55420	94.24106
12750.00000	94.18601	-376.99705	94.18601
12800.00000	94.15927	-377.62959	94.15927
12850.00000	93.71931	-378.51155	93.71931
12900.00000	93.56037	-379.83324	93.56037
12950.00000	93.49620	-381.39764	93.49620
13000.00000	93.30315	-383.23685	93.30315
13050.00000	93.23636	-383.87187	93.23636
13100.00000	93.00296	-385.30901	93.00296
13150.00000	92.95355	-386.66305	92.95355
13200.00000	92.83828	-386.38127	92.83828
13250.00000	92.61027	-387.09684	92.61027
13300.00000	92.36636	-385.62646	92.36636
13350.00000	92.14438	-386.58227	92.14438
13400.00000	92.15508	-387.92062	92.15508
13450.00000	91.84039	-387.34774	91.84039
13500.00000	91.87613	-387.11043	91.87613
13550.00000	91.60334	-387.02210	91.60334
13600.00000	91.51872	-386.42612	91.51872
13650.00000	91.27459	-385.94866	91.27459
13700.00000	91.05032	-386.33382	91.05032
13750.00000	90.87728	-386.33822	90.87728
13800.00000	90.71180	-388.52164	90.71180
13850.00000	90.72123	-389.38536	90.72123
13900.00000	90.55845	-388.40280	90.55845
13950.00000	90.59132	-386.95102	90.59132
14000.00000	90.68168	-384.53096	90.68168
14050.00000	90.59598	-383.58385	90.59598
14100.00000	90.51165	-381.86502	90.51165
14150.00000	90.62865	-383.18985	90.62865
14200.00000	90.76570	-382.28945	90.76570
14250.00000	91.19408	-380.55059	91.19408
14300.00000	91.16728	-379.16065	91.16728
14350.00000	91.28006	-376.37960	91.28006
14400.00000	90.97494	-375.97522	90.97494
14450.00000	91.05794	-374.14518	91.05794
14500.00000	91.18592	-374.04978	91.18592
14550.00000	91.46068	-372.88062	91.46068
14600.00000	91.62296	-373.36223	91.62296
14650.00000	92.22180	-370.64189	92.22180
14700.00000	92.45868	-374.06830	92.45868
14750.00000	92.92599	-371.89303	92.92599
14800.00000	93.12570	-370.34720	93.12570
14850.00000	93.57967	-368.93152	93.57967
14900.00000	93.95159	-369.76028	93.95159
14950.00000	94.40892	-370.04332	94.40892
15000.00000	94.95346	-370.40953	94.95346
15050.00000	95.23770	-368.95923	95.23770
15100.00000	95.71031	-368.41994	95.71031
15150.00000	96.23797	-369.37063	96.23797
15200.00000	96.57750	-368.66964	96.57750
15250.00000	96.93719	-370.88608	96.93719
15300.00000	97.52745	-371.79940	97.52745
15350.00000	98.16903	-374.41377	98.16903
15400.00000	98.59085	-374.59688	98.59085
15450.00000	99.08902	-376.31302	99.08902
15500.00000	99.63982	-377.99284	99.63982
15550.00000	100.17507	-380.56488	100.17507
15600.00000	100.56715	-383.10976	100.56715
15650.00000	101.19291	-384.13480	101.19291
15700.00000	101.44987	-387.77991	101.44987
15750.00000	102.05875	-390.09202	102.05875
15800.00000	102.49916	-392.08974	102.49916
15850.00000	102.84426	-394.55108	102.84426
15900.00000	103.12484	-397.69853	103.12484
15950.00000	103.59412	-401.41532	103.59412
16000.00000	103.95213	-404.44744	103.95213
16050.00000	104.36583	-407.43597	104.36583
16100.00000	104.55081	-411.13145	104.55081
16150.00000	104.80348	-414.38148	104.80348
16200.00000	105.05314	-418.42117	105.05314
16250.00000	105.35779	-421.47806	105.35779
16300.00000	105.79040	-424.98967	105.79040
16350.00000	105.94590	-428.53030	105.94590
16400.00000	106.14806	-431.45842	106.14806
16450.00000	106.29933	-434.71279	106.29933
16500.00000	106.38925	-438.30211	106.38925
16550.00000	106.71514	-442.30079	106.71514
16600.00000	106.86296	-445.09700	106.86296
16650.00000	106.98842	-448.36858	106.98842
16700.00000	107.15298	-451.18173	107.15298
16750.00000	107.18382	-454.83698	107.18382
16800.00000	107.35348	-458.24186	107.35348
16850.00000	107.54490	-461.30661	107.54490
16900.00000	107.69397	-464.60004	107.69397
16950.00000	107.83458	-467.59423	107.83458
17000.00000	107.80600	-470.89977	107.80600
17050.00000	107.96524	-473.33758	107.96524
17100.00000	107.96011	-475.99762	107.96011
17150.00000	108.25285	-479.37381	108.25285
17200.00000	108.36135	-482.31604	108.36135
17250.00000	108.42495	-485.71558	108.42495
17300.00000	108.60944	-488.58549	108.60944
17350.00000	108.58224	-491.40827	108.58224
17400.00000	108.77357	-494.62708	108.77357
17450.00000	108.79911	-498.16890	108.79911
17500.00000	108.94969	-501.25856	108.94969
17550.00000	109.04432	-504.38781	109.04432
17600.00000	109.23621	-507.21949	109.23621
17650.00000	109.28805	-511.27126	109.28805
17700.00000	109.39105	-514.49985	109.39105
17750.00000	109.55940	-517.40359	109.55940
17800.00000	109.51551	-521.37160	109.51551
17850.00000	109.59567	-524.38202	109.59567
17900.00000	109.62398	-527.84448	109.62398
17950.00000	109.75319	-531.61521	109.75319
18000.00000	109.76330	-535.65955	109.76330
18050.00000	109.93188	-538.70000	109.93188
18100.00000	109.86776	-542.65533	109.86776
18150.00000	109.86033	-545.61013	109.86033
18200.00000	109.79010	-549.72462	109.79010
18250.00000	109.83811	-552.49565	109.83811
18300.00000	109.81936	-556.21447	109.81936
18350.00000	109.83590	-559.39100	109.83590
18400.00000	109.75762	-563.23947	109.75762
18450.00000	109.64420	-567.72616	109.64420
18500.00000	109.61651	-570.94676	109.61651
18550.00000	109.52670	-573.82019	109.52670
18600.00000	109.54348	-577.50665	109.54348
18650.00000	109.32458	-580.42532	109.32458
18700.00000	109.21344	-584.16191	109.21344
18750.00000	109.16955	-587.26533	109.16955
18800.00000	109.16896	-589.75187	109.16896
18850.00000	108.94154	-593.05241	108.94154
18900.00000	108.80103	-595.58583	108.80103
18950.00000	108.73364	-599.26309	108.73364
19000.00000	108.48559	-601.68960	108.48559
19050.00000	108.51298	-604.64334	108.51298
19100.00000	108.36023	-607.31532	108.36023
19150.00000	108.38796	-609.74811	108.38796
19200.00000	108.24043	-612.26053	108.24043
19250.00000	108.13461	-615.92636	108.13461
19300.00000	107.97752	-617.88203	107.97752
19350.00000	107.91107	-620.65580	107.91107
19400.00000	107.76063	-623.09661	107.76063
19450.00000	107.78223	-625.12736	107.78223
19500.00000	107.64007	-628.43456	107.64007
19550.00000	107.55026	-631.09791	107.55026
19600.00000	107.53729	-634.22460	107.53729
19650.00000	107.38369	-636.36905	107.38369
19700.00000	107.18742	-639.03601	107.18742
19750.00000	107.09531	-641.24967	107.09531
19800.00000	107.08255	-644.64141	107.08255
19850.00000	107.00689	-646.85501	107.00689
19900.00000	106.86025	-650.24601	106.86025
19950.00000	106.73245	-652.69756	106.73245
20000.00000	106.62955	-655.28063	106.62955
20050.00000	106.53915	-657.91158	106.53915
20100.00000	106.37456	-660.41366	106.37456
20150.00000	106.28552	-662.26663	106.28552
20200.00000	106.12592	-665.54150	106.12592
20250.00000	105.94174	-667.93306	105.94174
20300.00000	105.73479	-670.46671	105.73479
20350.00000	105.66384	-673.13968	105.66384
20400.00000	105.43680	-674.73114	105.43680
20450.00000	105.18901	-677.14741	105.18901
20500.00000	105.09373	-679.79594	105.09373
20550.00000	104.69515	-681.14903	104.69515
20600.00000	104.60145	-682.90265	104.60145
20650.00000	104.41453	-684.87102	104.41453
20700.00000	104.16738	-686.44240	104.16738
20750.00000	104.04465	-688.06736	104.04465
20800.00000	103.82456	-689.22369	103.82456
20850.00000	103.70792	-690.60670	103.70792
20900.00000	103.47741	-691.76403	103.47741
20950.00000	103.30583	-692.36825	103.30583
21000.00000	103.18896	-693.10155	103.18896
21050.00000	103.22262	-693.58474	103.22262
21100.00000	103.10758	-693.99635	103.10758
21150.00000	103.13689	-694.97807	103.13689
21200.00000	103.17571	-695.40126	103.17571
21250.00000	103.19447	-697.42282	103.19447
21300.00000	103.29061	-697.96891	103.29061
21350.00000	103.32432	-698.82490	103.32432
21400.00000	103.36615	-700.46513	103.36615
21450.00000	103.45576	-702.08242	103.45576
21500.00000	103.53908	-703.96890	103.53908
21550.00000	103.50889	-705.21561	103.50889
21600.00000	103.61250	-707.15381	103.61250
21650.00000	103.61211	-709.24219	103.61211
21700.00000	103.64695	-710.80288	103.64695
21750.00000	103.70186	-712.78506	103.70186
21800.00000	103.70269	-714.57236	103.70269
21850.00000	103.62353	-716.40153	103.62353
21900.00000	103.69106	-718.26950	103.69106
21950.00000	103.63085	-719.95407	103.63085
22000.00000	103.68688	-721.55679	103.68688
22050.00000	103.66553	-722.83576	103.66553
22100.00000	103.62535	-724.65670	103.62535
22150.00000	103.60676	-726.25575	103.60676
22200.00000	103.70557	-728.01668	103.70557
22250.00000	103.66319	-728.99263	103.66319
22300.00000	103.53584	-730.59530	103.53584
22350.00000	103.70831	-732.44326	103.70831
22400.00000	103.74344	-734.27279	103.74344
22450.00000	103.67826	-735.57165	103.67826
22500.00000	103.66227	-736.25675	103.66227
22550.00000	103.68482	-738.23578	103.68482
22600.00000	103.69745	-740.47130	103.69745
22650.00000	103.72396	-742.01357	103.72396
22700.00000	103.74817	-743.22282	103.74817
