---ACOUSTIC CALIBRATION---
Filename: C:\Data\AZH DATA\AZH32\RightSecondary.calib
Date: 8/27/2019 1:12:25 PM
Format: 4
Probe Tube Correction File: C:\Data\Probe Tube Calibrations\50_ProbeTube.calib
Experiment VIs: 850
EPL_CFTS.exe V12.0.1 (2012)
DAQmx V9.6

Attenuation (dB): 40.000000
Min Freq (Hz): 50.000000
Max Freq (Hz): 49950.000000
Freq Step (Hz): 50.000000
Sample Rate (Hz): 100000.000000
[Smoothing]
Method=None
MA.Iterations=0
MA.Length=0
Loess.Length=0
Loess.Type=Linear
Loess.Robust=FALSE


Freq(Hz)	Mag(dB)	Phase(deg)	Unsmoothed(dB)

50.00000	107.84263	429.92808	107.84263
100.00000	77.12410	533.33982	77.12410
150.00000	82.48826	460.66867	82.48826
200.00000	82.41550	393.53830	82.41550
250.00000	90.09868	456.05063	90.09868
300.00000	83.47602	344.75778	83.47602
350.00000	83.47976	358.42055	83.47976
400.00000	88.01923	297.92878	88.01923
450.00000	87.30699	291.12535	87.30699
500.00000	87.37711	340.61689	87.37711
550.00000	89.23552	322.15844	89.23552
600.00000	90.06408	322.02438	90.06408
650.00000	92.54837	330.53331	92.54837
700.00000	94.71870	317.71078	94.71870
750.00000	97.65831	315.68960	97.65831
800.00000	99.98501	304.70905	99.98501
850.00000	102.50711	295.52132	102.50711
900.00000	104.00379	277.50433	104.00379
950.00000	105.32228	260.13973	105.32228
1000.00000	105.16928	242.66495	105.16928
1050.00000	104.69928	234.62598	104.69928
1100.00000	104.92066	222.80552	104.92066
1150.00000	104.02507	213.20253	104.02507
1200.00000	104.05242	211.18673	104.05242
1250.00000	103.90206	199.51208	103.90206
1300.00000	103.07956	194.72954	103.07956
1350.00000	102.17685	191.24341	102.17685
1400.00000	101.44291	192.73898	101.44291
1450.00000	101.96906	192.04082	101.96906
1500.00000	101.85856	190.62394	101.85856
1550.00000	102.07679	188.64110	102.07679
1600.00000	102.89063	185.93697	102.89063
1650.00000	103.77779	177.06814	103.77779
1700.00000	102.40118	172.79122	102.40118
1750.00000	102.22164	171.05647	102.22164
1800.00000	102.07736	168.88077	102.07736
1850.00000	101.81504	171.50622	101.81504
1900.00000	102.93876	171.39720	102.93876
1950.00000	103.90104	163.08468	103.90104
2000.00000	103.49836	154.29009	103.49836
2050.00000	102.62138	152.41794	102.62138
2100.00000	102.78663	150.38857	102.78663
2150.00000	102.49657	145.28215	102.49657
2200.00000	101.91805	142.00983	101.91805
2250.00000	101.10088	142.21622	101.10088
2300.00000	101.11299	142.11035	101.11299
2350.00000	100.90824	142.62425	100.90824
2400.00000	100.68084	142.82629	100.68084
2450.00000	100.48540	141.17644	100.48540
2500.00000	100.16269	144.58093	100.16269
2550.00000	99.93691	149.47792	99.93691
2600.00000	100.53286	156.31076	100.53286
2650.00000	102.24596	160.05221	102.24596
2700.00000	103.92563	155.32940	103.92563
2750.00000	104.87146	145.15082	104.87146
2800.00000	104.86172	135.27466	104.86172
2850.00000	104.63167	128.54895	104.63167
2900.00000	104.16930	124.02640	104.16930
2950.00000	103.78221	120.89872	103.78221
3000.00000	103.29215	117.49461	103.29215
3050.00000	102.81377	114.91018	102.81377
3100.00000	102.59718	114.12899	102.59718
3150.00000	102.15053	110.47368	102.15053
3200.00000	101.52393	110.37077	101.52393
3250.00000	100.80701	108.78708	100.80701
3300.00000	99.92147	111.87242	99.92147
3350.00000	98.71946	115.01662	98.71946
3400.00000	98.44727	125.35229	98.44727
3450.00000	98.83328	132.49091	98.83328
3500.00000	99.54678	137.49889	99.54678
3550.00000	100.11979	138.62995	100.11979
3600.00000	100.16020	140.82302	100.16020
3650.00000	99.83571	146.97429	99.83571
3700.00000	100.10907	157.89748	100.10907
3750.00000	101.82054	169.20219	101.82054
3800.00000	103.97022	173.88063	103.97022
3850.00000	105.88543	175.13330	105.88543
3900.00000	107.69942	172.72063	107.69942
3950.00000	109.31540	168.65555	109.31540
4000.00000	110.52080	163.51940	110.52080
4050.00000	111.50689	158.29072	111.50689
4100.00000	112.32451	153.93545	112.32451
4150.00000	113.26587	150.64120	113.26587
4200.00000	113.96035	147.27115	113.96035
4250.00000	114.84266	144.81010	114.84266
4300.00000	115.83190	142.68684	115.83190
4350.00000	116.96270	139.66071	116.96270
4400.00000	118.18735	136.30387	118.18735
4450.00000	119.51793	131.86117	119.51793
4500.00000	120.89652	126.24365	120.89652
4550.00000	122.30969	119.10367	122.30969
4600.00000	123.65669	110.59215	123.65669
4650.00000	124.98619	100.50437	124.98619
4700.00000	126.17326	88.24374	126.17326
4750.00000	127.05781	74.19357	127.05781
4800.00000	127.56024	58.81357	127.56024
4850.00000	127.57643	43.47593	127.57643
4900.00000	127.16631	28.95293	127.16631
4950.00000	126.38496	16.15234	126.38496
5000.00000	125.26830	 5.96313	125.26830
5050.00000	124.26598	-1.14625	124.26598
5100.00000	122.91366	-9.34078	122.91366
5150.00000	120.53501	-7.59900	120.53501
5200.00000	120.85482	11.36351	120.85482
5250.00000	123.83133	 7.58332	123.83133
5300.00000	124.78461	-6.96372	124.78461
5350.00000	124.71232	-19.15523	124.71232
5400.00000	124.30896	-28.71187	124.30896
5450.00000	123.83433	-36.39625	123.83433
5500.00000	123.35090	-43.08019	123.35090
5550.00000	122.89584	-48.97019	122.89584
5600.00000	122.43028	-54.44431	122.43028
5650.00000	122.01315	-59.51020	122.01315
5700.00000	121.56324	-64.38199	121.56324
5750.00000	121.14787	-68.80761	121.14787
5800.00000	120.73126	-72.98856	120.73126
5850.00000	120.35167	-77.09725	120.35167
5900.00000	119.98575	-81.01955	119.98575
5950.00000	119.63650	-84.81866	119.63650
6000.00000	119.28922	-88.38917	119.28922
6050.00000	118.93283	-92.03543	118.93283
6100.00000	118.59703	-95.53176	118.59703
6150.00000	118.25956	-98.96237	118.25956
6200.00000	117.92071	-102.28880	117.92071
6250.00000	117.60105	-105.57717	117.60105
6300.00000	117.27917	-108.74872	117.27917
6350.00000	116.94299	-111.91771	116.94299
6400.00000	116.62375	-114.83622	116.62375
6450.00000	116.30686	-117.74761	116.30686
6500.00000	115.97319	-120.55572	115.97319
6550.00000	115.64311	-123.21503	115.64311
6600.00000	115.29059	-125.81266	115.29059
6650.00000	114.98890	-128.07577	114.98890
6700.00000	114.66682	-130.50276	114.66682
6750.00000	114.35130	-132.56660	114.35130
6800.00000	114.08032	-134.60698	114.08032
6850.00000	113.80007	-136.53603	113.80007
6900.00000	113.58339	-138.46432	113.58339
6950.00000	113.32347	-140.39275	113.32347
7000.00000	113.09254	-142.34679	113.09254
7050.00000	112.85998	-144.29643	112.85998
7100.00000	112.60367	-146.18514	112.60367
7150.00000	112.38292	-147.60929	112.38292
7200.00000	112.14146	-148.98239	112.14146
7250.00000	111.90177	-150.39932	111.90177
7300.00000	111.75966	-151.41205	111.75966
7350.00000	111.61218	-152.24563	111.61218
7400.00000	111.52426	-153.35973	111.52426
7450.00000	111.45536	-154.23148	111.45536
7500.00000	111.43362	-155.26143	111.43362
7550.00000	111.44810	-156.42184	111.44810
7600.00000	111.49810	-157.75369	111.49810
7650.00000	111.52467	-159.21998	111.52467
7700.00000	111.66120	-160.94694	111.66120
7750.00000	111.68832	-163.05984	111.68832
7800.00000	111.76390	-164.97813	111.76390
7850.00000	111.84079	-167.32969	111.84079
7900.00000	111.93370	-169.69697	111.93370
7950.00000	112.00805	-172.54002	112.00805
8000.00000	112.02344	-175.30194	112.02344
8050.00000	112.07060	-178.60932	112.07060
8100.00000	112.08718	-181.16468	112.08718
8150.00000	112.02775	-184.28661	112.02775
8200.00000	112.02548	-187.10616	112.02548
8250.00000	111.93520	-190.42778	111.93520
8300.00000	111.88422	-193.25995	111.88422
8350.00000	111.79478	-196.17965	111.79478
8400.00000	111.70156	-199.52822	111.70156
8450.00000	111.49279	-202.50980	111.49279
8500.00000	111.32245	-205.24655	111.32245
8550.00000	111.19934	-207.79090	111.19934
8600.00000	111.02435	-210.72718	111.02435
8650.00000	110.80390	-213.12691	110.80390
8700.00000	110.66620	-216.32398	110.66620
8750.00000	110.42912	-217.97888	110.42912
8800.00000	110.27443	-220.81911	110.27443
8850.00000	110.06144	-223.30139	110.06144
8900.00000	109.91459	-225.22866	109.91459
8950.00000	109.76563	-227.70190	109.76563
9000.00000	109.61358	-229.81248	109.61358
9050.00000	109.55517	-232.17596	109.55517
9100.00000	109.47060	-234.06358	109.47060
9150.00000	109.43615	-236.00442	109.43615
9200.00000	109.45345	-237.90429	109.45345
9250.00000	109.38890	-240.03477	109.38890
9300.00000	109.37047	-241.92335	109.37047
9350.00000	109.38297	-243.99599	109.38297
9400.00000	109.25737	-245.82113	109.25737
9450.00000	109.25810	-248.17398	109.25810
9500.00000	109.24981	-250.40900	109.24981
9550.00000	109.19518	-252.97521	109.19518
9600.00000	109.23135	-255.63899	109.23135
9650.00000	109.19441	-258.76490	109.19441
9700.00000	109.16733	-261.19714	109.16733
9750.00000	109.19138	-264.65524	109.19138
9800.00000	109.09166	-266.78927	109.09166
9850.00000	109.01672	-268.85069	109.01672
9900.00000	108.77606	-271.43507	108.77606
9950.00000	108.62358	-273.27559	108.62358
10000.00000	108.45191	-276.01886	108.45191
10050.00000	108.24509	-278.52047	108.24509
10100.00000	108.00500	-280.98599	108.00500
10150.00000	107.73279	-284.20229	107.73279
10200.00000	107.60169	-286.89010	107.60169
10250.00000	107.44592	-289.90353	107.44592
10300.00000	107.45861	-292.65571	107.45861
10350.00000	107.35656	-294.92292	107.35656
10400.00000	107.21053	-297.32800	107.21053
10450.00000	107.19276	-299.74420	107.19276
10500.00000	107.12216	-301.91932	107.12216
10550.00000	106.99115	-304.30825	106.99115
10600.00000	106.81967	-306.55229	106.81967
10650.00000	106.63945	-308.67917	106.63945
10700.00000	106.49003	-312.17479	106.49003
10750.00000	106.41030	-315.09073	106.41030
10800.00000	106.22216	-317.60492	106.22216
10850.00000	106.09346	-321.00355	106.09346
10900.00000	105.99057	-323.32224	105.99057
10950.00000	105.82752	-325.39450	105.82752
11000.00000	105.65773	-327.72591	105.65773
11050.00000	105.29692	-329.93614	105.29692
11100.00000	105.02508	-332.75951	105.02508
11150.00000	104.66250	-335.04267	104.66250
11200.00000	104.44188	-337.34981	104.44188
11250.00000	104.11559	-340.05683	104.11559
11300.00000	103.80605	-342.50453	103.80605
11350.00000	103.55402	-344.11712	103.55402
11400.00000	103.21942	-345.74964	103.21942
11450.00000	102.96636	-347.81691	102.96636
11500.00000	102.80536	-348.49424	102.80536
11550.00000	102.42008	-349.51690	102.42008
11600.00000	102.27819	-351.48080	102.27819
11650.00000	102.02085	-351.94637	102.02085
11700.00000	101.88477	-353.29893	101.88477
11750.00000	101.79380	-354.67134	101.79380
11800.00000	101.68995	-356.38240	101.68995
11850.00000	101.62839	-356.71613	101.62839
11900.00000	101.35812	-358.59151	101.35812
11950.00000	101.27631	-359.64442	101.27631
12000.00000	101.07009	-360.70537	101.07009
12050.00000	100.88456	-362.14899	100.88456
12100.00000	100.79002	-364.78497	100.79002
12150.00000	100.63973	-366.80652	100.63973
12200.00000	100.60373	-369.20633	100.60373
12250.00000	100.46044	-370.82736	100.46044
12300.00000	101.45001	-373.05412	101.45001
12350.00000	100.11226	-374.88689	100.11226
12400.00000	99.94804	-376.00134	99.94804
12450.00000	99.68075	-377.29431	99.68075
12500.00000	99.42127	-379.56485	99.42127
12550.00000	99.20602	-380.99355	99.20602
12600.00000	98.86630	-383.01829	98.86630
12650.00000	98.76872	-384.22727	98.76872
12700.00000	98.43589	-385.52820	98.43589
12750.00000	98.19190	-387.03361	98.19190
12800.00000	97.91507	-387.77713	97.91507
12850.00000	97.38252	-388.40813	97.38252
12900.00000	97.17875	-390.24356	97.17875
12950.00000	96.98494	-392.00318	96.98494
13000.00000	96.89363	-394.02334	96.89363
13050.00000	96.75542	-393.44736	96.75542
13100.00000	96.35023	-394.11106	96.35023
13150.00000	96.13532	-394.97009	96.13532
13200.00000	95.85400	-392.86899	95.85400
13250.00000	95.53479	-394.71685	95.53479
13300.00000	95.25921	-392.77677	95.25921
13350.00000	95.03486	-394.79192	95.03486
13400.00000	94.99439	-395.65408	94.99439
13450.00000	94.71898	-394.84382	94.71898
13500.00000	94.70956	-392.82692	94.70956
13550.00000	94.39905	-392.59529	94.39905
13600.00000	94.23483	-391.13513	94.23483
13650.00000	94.09857	-390.39583	94.09857
13700.00000	93.82345	-390.22915	93.82345
13750.00000	93.60643	-390.23772	93.60643
13800.00000	93.41613	-391.18319	93.41613
13850.00000	93.42149	-391.64935	93.42149
13900.00000	93.31992	-389.95038	93.31992
13950.00000	93.53311	-389.06705	93.53311
14000.00000	93.85404	-386.05970	93.85404
14050.00000	93.99191	-385.87844	93.99191
14100.00000	93.97865	-384.59559	93.97865
14150.00000	94.30983	-384.53657	94.30983
14200.00000	94.55523	-383.11186	94.55523
14250.00000	94.99181	-380.30466	94.99181
14300.00000	95.09447	-380.24857	95.09447
14350.00000	95.28344	-378.95180	95.28344
14400.00000	95.14065	-380.00585	95.14065
14450.00000	95.47905	-379.79312	95.47905
14500.00000	95.83711	-381.24923	95.83711
14550.00000	96.32359	-381.65003	96.32359
14600.00000	96.62291	-382.26358	96.62291
14650.00000	97.12434	-381.12020	97.12434
14700.00000	97.37221	-385.90519	97.37221
14750.00000	97.60541	-386.65033	97.60541
14800.00000	97.78567	-387.44649	97.78567
14850.00000	98.30736	-388.89648	98.30736
14900.00000	98.70429	-390.98799	98.70429
14950.00000	98.93520	-393.06944	98.93520
15000.00000	99.16802	-395.18649	99.16802
15050.00000	99.24204	-396.26026	99.24204
15100.00000	99.57455	-398.04775	99.57455
15150.00000	99.93147	-400.51600	99.93147
15200.00000	100.01535	-400.75016	100.01535
15250.00000	100.03426	-403.26376	100.03426
15300.00000	100.32759	-405.66214	100.32759
15350.00000	100.39369	-408.75622	100.39369
15400.00000	100.45952	-409.90512	100.45952
15450.00000	100.58446	-412.29066	100.58446
15500.00000	100.79478	-414.55887	100.79478
15550.00000	100.94432	-417.25960	100.94432
15600.00000	101.06826	-419.60584	101.06826
15650.00000	101.40091	-419.67250	101.40091
15700.00000	101.35957	-422.43883	101.35957
15750.00000	101.53575	-423.53483	101.53575
15800.00000	101.61221	-424.81450	101.61221
15850.00000	101.64136	-427.03544	101.64136
15900.00000	101.70918	-429.50136	101.70918
15950.00000	101.93333	-431.46399	101.93333
16000.00000	102.02070	-432.73575	102.02070
16050.00000	102.17888	-434.37559	102.17888
16100.00000	102.10357	-436.68094	102.10357
16150.00000	102.19603	-438.50756	102.19603
16200.00000	102.38866	-440.96417	102.38866
16250.00000	102.55200	-441.95957	102.55200
16300.00000	102.79495	-443.46048	102.79495
16350.00000	102.78042	-444.94174	102.78042
16400.00000	102.88342	-446.63896	102.88342
16450.00000	103.04228	-448.59871	103.04228
16500.00000	103.21220	-450.36935	103.21220
16550.00000	103.43139	-452.52063	103.43139
16600.00000	103.60369	-453.88821	103.60369
16650.00000	103.70677	-455.55799	103.70677
16700.00000	103.91184	-457.45818	103.91184
16750.00000	104.03267	-460.10759	104.03267
16800.00000	104.27621	-462.23638	104.27621
16850.00000	104.50495	-464.28465	104.50495
16900.00000	104.69586	-466.61340	104.69586
16950.00000	104.83303	-468.96406	104.83303
17000.00000	104.85312	-471.78786	104.85312
17050.00000	105.08829	-473.83259	105.08829
17100.00000	105.19071	-475.29817	105.19071
17150.00000	105.44690	-478.47916	105.44690
17200.00000	105.53012	-480.85325	105.53012
17250.00000	105.59377	-484.17741	105.59377
17300.00000	105.78238	-486.81076	105.78238
17350.00000	105.77885	-489.11837	105.77885
17400.00000	105.93665	-491.96484	105.93665
17450.00000	105.95236	-494.96332	105.95236
17500.00000	106.06194	-497.66749	106.06194
17550.00000	106.11417	-500.40231	106.11417
17600.00000	106.22821	-502.72401	106.22821
17650.00000	106.22794	-506.34443	106.22794
17700.00000	106.23525	-509.13416	106.23525
17750.00000	106.37922	-511.01392	106.37922
17800.00000	106.26260	-514.10769	106.26260
17850.00000	106.22741	-516.12978	106.22741
17900.00000	106.17856	-518.99050	106.17856
17950.00000	106.25537	-522.01423	106.25537
18000.00000	106.24974	-524.63430	106.24974
18050.00000	106.34706	-526.20845	106.34706
18100.00000	106.19323	-528.93857	106.19323
18150.00000	106.12733	-530.87360	106.12733
18200.00000	106.04694	-533.71779	106.04694
18250.00000	106.15174	-535.00153	106.15174
18300.00000	106.18225	-536.93590	106.18225
18350.00000	106.15415	-538.56736	106.15415
18400.00000	106.05661	-540.85832	106.05661
18450.00000	106.02317	-544.01697	106.02317
18500.00000	106.07783	-545.70683	106.07783
18550.00000	106.12669	-546.87879	106.12669
18600.00000	106.25475	-548.98926	106.25475
18650.00000	106.15295	-550.60047	106.15295
18700.00000	106.16963	-553.01356	106.16963
18750.00000	106.30019	-554.88034	106.30019
18800.00000	106.50674	-556.38726	106.50674
18850.00000	106.48627	-558.47244	106.48627
18900.00000	106.55841	-560.26072	106.55841
18950.00000	106.64751	-563.09260	106.64751
19000.00000	106.60540	-564.96243	106.60540
19050.00000	106.83343	-567.48212	106.83343
19100.00000	106.89600	-569.55909	106.89600
19150.00000	107.08629	-571.72508	107.08629
19200.00000	107.13711	-573.81645	107.13711
19250.00000	107.18612	-577.52895	107.18612
19300.00000	107.21601	-579.38222	107.21601
19350.00000	107.28770	-582.12837	107.28770
19400.00000	107.31826	-584.39103	107.31826
19450.00000	107.46923	-586.42504	107.46923
19500.00000	107.41015	-589.94346	107.41015
19550.00000	107.49280	-592.29777	107.49280
19600.00000	107.61601	-595.52228	107.61601
19650.00000	107.60676	-597.54025	107.60676
19700.00000	107.53139	-600.29946	107.53139
19750.00000	107.54452	-602.49413	107.54452
19800.00000	107.69003	-606.02118	107.69003
19850.00000	107.73607	-608.33674	107.73607
19900.00000	107.72583	-611.77597	107.72583
19950.00000	107.70173	-614.25701	107.70173
20000.00000	107.71345	-617.14987	107.71345
20050.00000	107.75096	-619.94991	107.75096
20100.00000	107.65156	-622.75552	107.65156
20150.00000	107.70982	-624.68824	107.70982
20200.00000	107.64385	-628.17662	107.64385
20250.00000	107.55606	-630.84421	107.55606
20300.00000	107.45197	-633.72356	107.45197
20350.00000	107.48218	-636.56093	107.48218
20400.00000	107.35835	-638.46407	107.35835
20450.00000	107.18452	-641.08023	107.18452
20500.00000	107.16023	-644.02106	107.16023
20550.00000	106.84450	-645.70925	106.84450
20600.00000	106.82488	-647.70385	106.82488
20650.00000	106.70492	-649.80682	106.70492
20700.00000	106.52705	-651.63790	106.52705
20750.00000	106.47666	-653.39821	106.47666
20800.00000	106.33569	-654.54923	106.33569
20850.00000	106.29389	-656.08773	106.29389
20900.00000	106.15848	-657.30395	106.15848
20950.00000	106.08663	-657.97850	106.08663
21000.00000	106.06779	-658.84381	106.06779
21050.00000	106.22199	-659.33824	106.22199
21100.00000	106.24792	-659.90290	106.24792
21150.00000	106.40009	-661.03088	106.40009
21200.00000	106.57473	-661.87367	106.57473
21250.00000	106.73948	-664.23141	106.73948
21300.00000	107.00043	-665.13078	107.00043
21350.00000	107.15854	-666.63555	107.15854
21400.00000	107.33130	-669.00091	107.33130
21450.00000	107.54583	-671.29371	107.54583
21500.00000	107.75400	-674.00820	107.75400
21550.00000	107.81456	-676.11913	107.81456
21600.00000	108.01988	-678.92619	108.01988
21650.00000	108.11885	-681.90144	108.11885
21700.00000	108.22196	-684.37943	108.22196
21750.00000	108.33153	-687.24812	108.33153
21800.00000	108.40827	-690.03256	108.40827
21850.00000	108.37980	-692.76322	108.37980
21900.00000	108.45165	-695.74703	108.45165
21950.00000	108.47444	-698.21620	108.47444
22000.00000	108.55253	-700.85480	108.55253
22050.00000	108.51138	-703.06703	108.51138
22100.00000	108.48881	-705.99003	108.48881
22150.00000	108.45936	-708.52806	108.45936
22200.00000	108.54390	-711.12532	108.54390
22250.00000	108.46428	-712.84246	108.46428
22300.00000	108.31518	-715.40665	108.31518
22350.00000	108.41077	-718.06058	108.41077
22400.00000	108.41978	-720.45924	108.41978
22450.00000	108.34703	-722.36529	108.34703
22500.00000	108.24458	-723.32363	108.24458
22550.00000	108.21734	-725.87116	108.21734
22600.00000	108.14083	-728.94991	108.14083
22650.00000	108.18015	-730.91097	108.18015
