---ACOUSTIC CALIBRATION---
Filename: C:\Data\AZH DATA\AZH51\RightPrimary.calib
Date: 8/27/2019 11:13:48 AM
Format: 4
Probe Tube Correction File: C:\Data\Probe Tube Calibrations\50_ProbeTube.calib
Experiment VIs: 850
EPL_CFTS.exe V12.0.1 (2012)
DAQmx V9.6

Attenuation (dB): 40.000000
Min Freq (Hz): 50.000000
Max Freq (Hz): 49950.000000
Freq Step (Hz): 50.000000
Sample Rate (Hz): 100000.000000
[Smoothing]
Method=None
MA.Iterations=0
MA.Length=0
Loess.Length=0
Loess.Type=Linear
Loess.Robust=FALSE


Freq(Hz)	Mag(dB)	Phase(deg)	Unsmoothed(dB)

50.00000	103.41439	527.58139	103.41439
100.00000	81.58203	614.95920	81.58203
150.00000	77.87092	501.75278	77.87092
200.00000	78.30172	450.00072	78.30172
250.00000	91.38747	468.35955	91.38747
300.00000	88.18948	396.81925	88.18948
350.00000	85.84234	397.70285	85.84234
400.00000	87.51011	368.37912	87.51011
450.00000	88.24324	350.59611	88.24324
500.00000	89.72500	368.26146	89.72500
550.00000	94.25409	356.28639	94.25409
600.00000	95.35983	351.24565	95.35983
650.00000	98.48712	340.43924	98.48712
700.00000	100.74543	326.25411	100.74543
750.00000	102.43560	307.69793	102.43560
800.00000	103.40492	284.33234	103.40492
850.00000	102.54541	268.69820	102.54541
900.00000	100.73571	252.11279	100.73571
950.00000	98.82886	252.48480	98.82886
1000.00000	97.34031	256.75455	97.34031
1050.00000	95.59341	274.05418	95.59341
1100.00000	98.38605	293.73052	98.38605
1150.00000	101.14082	296.56305	101.14082
1200.00000	103.78637	293.66978	103.78637
1250.00000	105.38245	285.80659	105.38245
1300.00000	107.09060	280.24784	107.09060
1350.00000	108.23810	270.81267	108.23810
1400.00000	109.16702	263.95922	109.16702
1450.00000	110.19624	256.93624	110.19624
1500.00000	111.24001	250.43349	111.24001
1550.00000	112.10335	240.66003	112.10335
1600.00000	113.39981	231.09448	113.39981
1650.00000	114.35119	214.62722	114.35119
1700.00000	113.01879	204.77136	113.01879
1750.00000	112.70828	199.61825	112.70828
1800.00000	112.48944	195.85641	112.48944
1850.00000	112.75838	195.01480	112.75838
1900.00000	114.07038	189.41464	114.07038
1950.00000	114.48430	175.36944	114.48430
2000.00000	113.35627	164.19931	113.35627
2050.00000	112.22060	170.39540	112.22060
2100.00000	114.08808	168.04711	114.08808
2150.00000	114.59358	156.79903	114.59358
2200.00000	114.43338	147.20731	114.43338
2250.00000	113.77726	140.24604	113.77726
2300.00000	113.82497	134.84083	113.82497
2350.00000	113.47860	128.76650	113.47860
2400.00000	113.15475	123.29414	113.15475
2450.00000	112.79502	116.80561	112.79502
2500.00000	112.30911	112.28189	112.30911
2550.00000	111.77435	106.98671	111.77435
2600.00000	111.09318	102.95965	111.09318
2650.00000	110.52283	99.52381	110.52283
2700.00000	109.77117	96.36677	109.77117
2750.00000	108.94020	93.40907	108.94020
2800.00000	107.95115	91.99759	107.95115
2850.00000	106.92465	92.49919	106.92465
2900.00000	105.76123	93.60403	105.76123
2950.00000	104.61599	98.26990	104.61599
3000.00000	103.42391	106.20037	103.42391
3050.00000	102.74652	119.74085	102.74652
3100.00000	103.39513	136.50098	103.39513
3150.00000	105.13232	147.64968	105.13232
3200.00000	107.10672	153.33222	107.10672
3250.00000	108.98995	155.15901	108.98995
3300.00000	110.68958	154.80188	110.68958
3350.00000	112.33004	153.45442	112.33004
3400.00000	114.03718	151.65975	114.03718
3450.00000	115.80831	147.00843	115.80831
3500.00000	117.47175	139.64534	117.47175
3550.00000	118.68430	130.48628	118.68430
3600.00000	119.72945	121.93958	119.72945
3650.00000	120.50340	112.29607	120.50340
3700.00000	121.07379	103.10857	121.07379
3750.00000	121.46069	94.13787	121.46069
3800.00000	121.65912	85.77847	121.65912
3850.00000	121.74831	78.87193	121.74831
3900.00000	121.94622	73.26942	121.94622
3950.00000	122.30321	67.56696	122.30321
4000.00000	122.69875	61.27357	122.69875
4050.00000	123.09516	54.67003	123.09516
4100.00000	123.49158	47.56105	123.49158
4150.00000	124.00461	39.67409	124.00461
4200.00000	124.17212	30.82636	124.17212
4250.00000	124.29391	21.88094	124.29391
4300.00000	124.27653	12.97056	124.27653
4350.00000	124.12575	 4.21736	124.12575
4400.00000	123.86840	-3.80356	123.86840
4450.00000	123.57767	-11.40808	123.57767
4500.00000	123.28130	-18.57079	123.28130
4550.00000	122.97407	-25.71959	122.97407
4600.00000	122.60608	-32.81760	122.60608
4650.00000	122.25621	-39.84274	122.25621
4700.00000	121.81398	-47.41827	121.81398
4750.00000	121.19367	-55.06100	121.19367
4800.00000	120.37205	-62.40284	120.37205
4850.00000	119.33136	-68.29092	119.33136
4900.00000	118.20450	-72.20868	118.20450
4950.00000	117.14478	-73.99692	117.14478
5000.00000	116.23461	-74.23694	116.23461
5050.00000	115.48147	-74.31491	115.48147
5100.00000	114.78010	-70.94301	114.78010
5150.00000	115.12006	-68.62186	115.12006
5200.00000	115.47245	-68.65746	115.47245
5250.00000	115.86159	-74.94813	115.86159
5300.00000	115.29536	-80.38684	115.29536
5350.00000	114.71916	-82.21298	114.71916
5400.00000	114.33724	-83.01661	114.33724
5450.00000	114.10113	-83.66574	114.10113
5500.00000	113.93198	-84.45279	113.93198
5550.00000	113.83085	-85.20727	113.83085
5600.00000	113.78957	-86.10922	113.78957
5650.00000	113.86721	-87.08619	113.86721
5700.00000	114.00109	-88.80904	114.00109
5750.00000	114.15656	-90.96560	114.15656
5800.00000	114.25881	-93.93069	114.25881
5850.00000	114.31110	-97.19918	114.31110
5900.00000	114.32190	-100.46961	114.32190
5950.00000	114.27764	-103.67413	114.27764
6000.00000	114.20430	-106.59181	114.20430
6050.00000	114.12044	-109.48637	114.12044
6100.00000	114.05231	-112.37713	114.05231
6150.00000	113.97366	-115.12705	113.97366
6200.00000	113.88285	-117.77665	113.88285
6250.00000	113.79631	-120.45751	113.79631
6300.00000	113.72929	-123.12070	113.72929
6350.00000	113.63299	-125.80769	113.63299
6400.00000	113.56167	-128.30097	113.56167
6450.00000	113.51376	-130.95856	113.51376
6500.00000	113.44263	-133.59922	113.44263
6550.00000	113.37410	-136.22333	113.37410
6600.00000	113.31640	-138.80589	113.31640
6650.00000	113.26687	-141.40365	113.26687
6700.00000	113.23694	-144.13996	113.23694
6750.00000	113.21863	-146.81950	113.21863
6800.00000	113.19813	-149.55065	113.19813
6850.00000	113.17163	-152.30890	113.17163
6900.00000	113.18097	-155.07649	113.18097
6950.00000	113.17845	-157.81713	113.17845
7000.00000	113.18169	-160.84404	113.18169
7050.00000	113.17092	-163.89368	113.17092
7100.00000	113.18202	-167.02055	113.18202
7150.00000	113.18531	-170.20786	113.18531
7200.00000	113.17397	-173.55774	113.17397
7250.00000	113.12827	-177.04601	113.12827
7300.00000	113.12456	-180.56220	113.12456
7350.00000	113.07552	-184.17632	113.07552
7400.00000	113.03833	-188.03434	113.03833
7450.00000	112.95961	-191.95252	112.95961
7500.00000	112.86818	-195.88265	112.86818
7550.00000	112.77377	-199.74780	112.77377
7600.00000	112.62172	-203.65934	112.62172
7650.00000	112.47359	-207.61553	112.47359
7700.00000	112.33744	-211.60101	112.33744
7750.00000	112.11083	-215.59713	112.11083
7800.00000	111.88094	-219.51431	111.88094
7850.00000	111.63105	-223.27861	111.63105
7900.00000	111.39601	-226.89908	111.39601
7950.00000	111.13286	-230.69169	111.13286
8000.00000	110.87321	-234.33119	110.87321
8050.00000	110.60209	-238.02404	110.60209
8100.00000	110.32477	-240.91138	110.32477
8150.00000	109.99670	-243.93557	109.99670
8200.00000	109.70327	-246.66716	109.70327
8250.00000	109.35196	-249.69895	109.35196
8300.00000	109.04184	-252.31995	109.04184
8350.00000	108.66518	-254.71586	108.66518
8400.00000	108.29026	-257.73342	108.29026
8450.00000	107.84156	-260.31425	107.84156
8500.00000	107.41655	-263.09956	107.41655
8550.00000	107.05974	-265.61325	107.05974
8600.00000	106.68239	-268.63485	106.68239
8650.00000	106.31216	-271.30993	106.31216
8700.00000	106.00880	-274.33964	106.00880
8750.00000	105.66159	-275.76000	105.66159
8800.00000	105.41009	-278.14227	105.41009
8850.00000	105.10437	-279.97379	105.10437
8900.00000	104.86061	-281.16665	104.86061
8950.00000	104.54894	-282.76357	104.54894
9000.00000	104.16863	-284.04859	104.16863
9050.00000	103.82324	-285.77125	103.82324
9100.00000	103.43179	-287.31744	103.43179
9150.00000	103.05055	-289.01977	103.05055
9200.00000	102.72830	-290.90059	102.72830
9250.00000	102.36588	-292.92015	102.36588
9300.00000	102.13971	-294.97699	102.13971
9350.00000	101.99349	-296.97682	101.99349
9400.00000	101.74948	-298.12842	101.74948
9450.00000	101.65251	-298.94778	101.65251
9500.00000	101.61524	-298.82638	101.61524
9550.00000	101.61108	-299.08549	101.61108
9600.00000	101.54006	-300.20648	101.54006
9650.00000	101.31916	-301.20437	101.31916
9700.00000	101.06927	-301.56177	101.06927
9750.00000	100.86903	-303.37992	100.86903
9800.00000	100.57900	-304.60882	100.57900
9850.00000	100.35265	-305.92315	100.35265
9900.00000	100.06278	-308.20143	100.06278
9950.00000	99.94396	-309.60491	99.94396
10000.00000	99.86857	-311.57122	99.86857
10050.00000	99.77944	-312.82269	99.77944
10100.00000	99.67846	-313.69723	99.67846
10150.00000	99.49968	-315.03723	99.49968
10200.00000	99.35358	-315.87350	99.35358
10250.00000	99.11806	-317.27062	99.11806
10300.00000	98.99902	-318.70097	98.99902
10350.00000	98.77139	-320.16555	98.77139
10400.00000	98.56128	-322.31727	98.56128
10450.00000	98.51238	-324.73907	98.51238
10500.00000	98.49445	-326.81669	98.49445
10550.00000	98.48263	-328.90686	98.48263
10600.00000	98.44787	-330.54401	98.44787
10650.00000	98.38546	-331.71767	98.38546
10700.00000	98.33348	-333.89642	98.33348
10750.00000	98.25372	-335.62456	98.25372
10800.00000	98.06797	-337.18859	98.06797
10850.00000	97.89208	-339.98124	97.89208
10900.00000	97.73779	-342.00267	97.73779
10950.00000	97.58912	-344.08612	97.58912
11000.00000	97.43432	-346.53560	97.43432
11050.00000	97.15086	-348.78054	97.15086
11100.00000	96.96361	-351.32648	96.96361
11150.00000	96.67459	-353.15796	96.67459
11200.00000	96.51291	-355.02379	96.51291
11250.00000	96.17074	-357.20334	96.17074
11300.00000	95.79536	-359.30086	95.79536
11350.00000	95.44225	-360.86278	95.44225
11400.00000	94.99930	-362.79388	94.99930
11450.00000	94.70084	-365.11083	94.70084
11500.00000	94.51003	-366.02068	94.51003
11550.00000	94.09308	-367.04991	94.09308
11600.00000	93.86495	-368.85077	93.86495
11650.00000	93.54455	-368.79566	93.54455
11700.00000	93.27726	-369.35955	93.27726
11750.00000	93.02318	-370.20681	93.02318
11800.00000	92.72297	-371.15553	92.72297
11850.00000	92.55200	-370.88817	92.55200
11900.00000	92.15511	-371.85037	92.15511
11950.00000	91.93533	-371.86157	91.93533
12000.00000	91.64219	-371.61778	91.64219
12050.00000	91.35139	-371.74286	91.35139
12100.00000	91.15339	-372.62319	91.15339
12150.00000	90.90968	-373.10114	90.90968
12200.00000	90.84358	-374.03829	90.84358
12250.00000	90.69603	-374.27316	90.69603
12300.00000	91.74300	-374.44347	91.74300
12350.00000	90.48082	-374.28790	90.48082
12400.00000	90.32594	-373.18144	90.32594
12450.00000	90.19675	-372.88417	90.19675
12500.00000	90.02399	-373.32854	90.02399
12550.00000	89.80783	-374.21116	89.80783
12600.00000	89.60496	-375.35868	89.60496
12650.00000	89.68590	-375.77314	89.68590
12700.00000	89.57920	-376.45870	89.57920
12750.00000	89.47772	-376.69707	89.47772
12800.00000	89.32218	-377.04971	89.32218
12850.00000	88.92392	-376.91565	88.92392
12900.00000	88.77626	-377.81059	88.77626
12950.00000	88.70140	-378.58314	88.70140
13000.00000	88.43440	-379.85926	88.43440
13050.00000	88.44811	-379.05541	88.44811
13100.00000	88.19932	-379.08188	88.19932
13150.00000	88.14541	-379.83908	88.14541
13200.00000	88.10026	-377.95700	88.10026
13250.00000	87.85478	-377.79992	87.85478
13300.00000	87.62703	-375.55158	87.62703
13350.00000	87.38541	-375.84077	87.38541
13400.00000	87.51755	-375.76027	87.51755
13450.00000	87.21720	-374.42830	87.21720
13500.00000	87.28737	-373.34455	87.28737
13550.00000	87.13610	-373.36014	87.13610
13600.00000	87.10198	-371.54538	87.10198
13650.00000	87.15313	-370.07176	87.15313
13700.00000	86.95404	-369.33548	86.95404
13750.00000	86.72723	-368.58386	86.72723
13800.00000	86.73042	-370.18181	86.73042
13850.00000	86.71309	-370.28527	86.71309
13900.00000	86.85115	-370.14279	86.85115
13950.00000	87.13391	-367.84717	87.13391
14000.00000	87.31954	-364.28781	87.31954
14050.00000	87.42523	-363.01118	87.42523
14100.00000	87.30938	-361.28277	87.30938
14150.00000	87.36058	-360.64522	87.36058
14200.00000	87.60787	-360.85031	87.60787
14250.00000	88.16139	-358.71927	88.16139
14300.00000	88.47088	-357.01022	88.47088
14350.00000	88.72845	-354.48544	88.72845
14400.00000	88.58379	-353.13916	88.58379
14450.00000	88.84521	-351.19832	88.84521
14500.00000	89.00918	-351.28337	89.00918
14550.00000	89.46555	-350.48300	89.46555
14600.00000	89.68117	-350.73670	89.68117
14650.00000	90.42993	-348.63026	90.42993
14700.00000	90.86635	-351.40472	90.86635
14750.00000	91.21199	-350.04892	91.21199
14800.00000	91.51471	-348.84769	91.51471
14850.00000	92.06529	-348.63683	92.06529
14900.00000	92.58888	-349.06842	92.58888
14950.00000	93.08309	-349.64681	93.08309
15000.00000	93.61812	-350.54603	93.61812
15050.00000	94.06345	-349.49588	94.06345
15100.00000	94.63637	-349.01702	94.63637
15150.00000	95.23476	-350.23065	95.23476
15200.00000	95.59477	-349.60875	95.59477
15250.00000	95.91207	-352.16137	95.91207
15300.00000	96.59594	-353.89727	96.59594
15350.00000	97.13655	-356.33866	97.13655
15400.00000	97.58864	-357.06009	97.58864
15450.00000	98.14079	-359.01127	98.14079
15500.00000	98.76962	-360.34906	98.76962
15550.00000	99.24887	-362.72938	99.24887
15600.00000	99.72821	-365.41672	99.72821
15650.00000	100.36946	-366.52802	100.36946
15700.00000	100.72863	-370.37060	100.72863
15750.00000	101.31669	-372.79245	101.31669
15800.00000	101.84617	-374.89197	101.84617
15850.00000	102.20826	-377.72965	102.20826
15900.00000	102.53809	-381.40122	102.53809
15950.00000	103.01703	-384.79004	103.01703
16000.00000	103.38635	-388.10495	103.38635
16050.00000	103.84267	-391.46555	103.84267
16100.00000	104.06282	-395.08900	104.06282
16150.00000	104.36053	-398.59439	104.36053
16200.00000	104.64267	-402.73450	104.64267
16250.00000	104.95493	-406.04407	104.95493
16300.00000	105.35624	-409.73622	105.35624
16350.00000	105.57286	-413.28201	105.57286
16400.00000	105.79787	-416.47432	105.79787
16450.00000	106.00993	-419.82881	106.00993
16500.00000	106.19859	-423.29793	106.19859
16550.00000	106.43912	-427.57518	106.43912
16600.00000	106.64141	-430.79522	106.64141
16650.00000	106.76402	-434.30393	106.76402
16700.00000	106.94585	-437.48830	106.94585
16750.00000	106.99311	-441.14108	106.99311
16800.00000	107.17868	-445.00020	107.17868
16850.00000	107.40137	-448.30470	107.40137
16900.00000	107.52772	-451.85478	107.52772
16950.00000	107.66445	-455.15363	107.66445
17000.00000	107.65473	-458.58151	107.65473
17050.00000	107.81029	-461.32459	107.81029
17100.00000	107.83420	-463.72293	107.83420
17150.00000	108.04568	-467.54611	108.04568
17200.00000	108.15804	-470.64387	108.15804
17250.00000	108.22053	-474.34669	108.22053
17300.00000	108.39608	-477.44656	108.39608
17350.00000	108.35898	-480.37650	108.35898
17400.00000	108.51811	-483.53521	108.51811
17450.00000	108.54218	-487.12467	108.54218
17500.00000	108.68136	-490.36094	108.68136
17550.00000	108.77802	-493.41100	108.77802
17600.00000	108.93941	-496.22965	108.93941
17650.00000	109.00947	-500.32104	109.00947
17700.00000	109.04993	-503.70882	109.04993
17750.00000	109.25314	-506.45451	109.25314
17800.00000	109.21179	-510.40765	109.21179
17850.00000	109.30164	-513.29670	109.30164
17900.00000	109.32828	-516.86859	109.32828
17950.00000	109.45180	-520.58282	109.45180
18000.00000	109.48039	-524.54633	109.48039
18050.00000	109.63124	-527.62645	109.63124
18100.00000	109.58440	-531.67968	109.58440
18150.00000	109.58697	-534.57767	109.58697
18200.00000	109.53739	-538.79979	109.53739
18250.00000	109.59383	-541.56304	109.59383
18300.00000	109.64784	-545.13073	109.64784
18350.00000	109.61068	-548.58277	109.61068
18400.00000	109.52769	-552.29524	109.52769
18450.00000	109.44420	-557.04926	109.44420
18500.00000	109.41016	-560.16339	109.41016
18550.00000	109.33210	-563.11803	109.33210
18600.00000	109.36103	-567.04763	109.36103
18650.00000	109.13307	-570.05283	109.13307
18700.00000	109.02715	-573.74379	109.02715
18750.00000	108.98305	-576.89757	108.98305
18800.00000	108.98226	-579.49940	108.98226
18850.00000	108.75833	-582.98560	108.75833
18900.00000	108.62242	-585.83590	108.62242
18950.00000	108.54113	-589.33497	108.54113
19000.00000	108.29704	-591.74202	108.29704
19050.00000	108.30547	-594.86728	108.30547
19100.00000	108.14337	-597.43926	108.14337
19150.00000	108.18066	-599.98517	108.18066
19200.00000	108.02616	-602.35976	108.02616
19250.00000	107.91917	-606.16866	107.91917
19300.00000	107.74231	-608.12779	107.74231
19350.00000	107.67838	-610.91062	107.67838
19400.00000	107.52404	-613.32935	107.52404
19450.00000	107.52864	-615.48144	107.52864
19500.00000	107.35994	-618.95920	107.35994
19550.00000	107.28762	-621.31666	107.28762
19600.00000	107.25782	-624.42616	107.25782
19650.00000	107.11285	-626.57246	107.11285
19700.00000	106.91855	-629.27589	106.91855
19750.00000	106.83329	-631.29369	106.83329
19800.00000	106.81563	-634.65054	106.81563
19850.00000	106.74361	-636.95703	106.74361
19900.00000	106.58505	-640.23914	106.58505
19950.00000	106.46159	-642.62253	106.46159
20000.00000	106.36720	-645.24183	106.36720
20050.00000	106.25355	-647.70712	106.25355
20100.00000	106.06562	-650.41253	106.06562
20150.00000	106.00344	-651.98018	106.00344
20200.00000	105.83717	-655.26401	105.83717
20250.00000	105.65301	-657.58133	105.65301
20300.00000	105.43976	-659.91520	105.43976
20350.00000	105.36244	-662.45316	105.36244
20400.00000	105.13015	-663.93171	105.13015
20450.00000	104.90283	-666.21689	104.90283
20500.00000	104.79401	-668.60806	104.79401
20550.00000	104.39843	-669.73127	104.39843
20600.00000	104.31152	-671.37116	104.31152
20650.00000	104.13159	-672.98285	104.13159
20700.00000	103.91867	-674.38954	103.91867
20750.00000	103.79948	-675.54840	103.79948
20800.00000	103.59988	-676.38554	103.59988
20850.00000	103.53045	-677.44456	103.53045
20900.00000	103.34708	-678.26149	103.34708
20950.00000	103.26408	-678.46744	103.26408
21000.00000	103.21141	-678.94873	103.21141
21050.00000	103.33051	-679.24040	103.33051
21100.00000	103.32866	-679.55622	103.32866
21150.00000	103.46103	-680.44503	103.46103
21200.00000	103.60713	-680.88330	103.60713
21250.00000	103.73090	-683.07856	103.73090
21300.00000	103.93592	-683.79508	103.93592
21350.00000	104.08347	-685.18916	104.08347
21400.00000	104.22201	-687.26748	104.22201
21450.00000	104.37834	-689.35887	104.37834
21500.00000	104.53340	-691.83849	104.53340
21550.00000	104.55393	-693.76507	104.55393
21600.00000	104.72748	-696.31697	104.72748
21650.00000	104.75743	-698.95894	104.75743
21700.00000	104.80383	-701.29105	104.80383
21750.00000	104.83038	-703.82977	104.83038
21800.00000	104.84452	-706.38978	104.84452
21850.00000	104.78824	-708.65401	104.78824
21900.00000	104.79409	-710.86260	104.79409
21950.00000	104.76753	-713.10989	104.76753
22000.00000	104.76480	-715.07688	104.76480
22050.00000	104.72296	-716.93815	104.72296
22100.00000	104.67580	-719.14577	104.67580
22150.00000	104.64882	-721.11253	104.64882
22200.00000	104.67900	-723.07270	104.67900
22250.00000	104.60314	-724.65482	104.60314
22300.00000	104.52931	-726.57339	104.52931
22350.00000	104.61103	-728.72613	104.61103
22400.00000	104.60904	-730.75856	104.60904
22450.00000	104.55682	-732.18861	104.55682
22500.00000	104.47720	-733.30731	104.47720
22550.00000	104.47034	-735.49163	104.47034
22600.00000	104.44495	-738.11998	104.44495
22650.00000	104.42104	-739.78294	104.42104
22700.00000	104.42889	-741.34662	104.42889
22750.00000	104.39276	-741.42881	104.39276
