---ACOUSTIC CALIBRATION---
Filename: C:\Data\AZH DATA\AZH51\RightPrimary.calib
Date: 8/27/2019 11:14:23 AM
Format: 4
Probe Tube Correction File: C:\Data\Probe Tube Calibrations\50_ProbeTube.calib
Experiment VIs: 850
EPL_CFTS.exe V12.0.1 (2012)
DAQmx V9.6

Attenuation (dB): 40.000000
Min Freq (Hz): 50.000000
Max Freq (Hz): 49950.000000
Freq Step (Hz): 50.000000
Sample Rate (Hz): 100000.000000
[Smoothing]
Method=None
MA.Iterations=0
MA.Length=0
Loess.Length=0
Loess.Type=Linear
Loess.Robust=FALSE


Freq(Hz)	Mag(dB)	Phase(deg)	Unsmoothed(dB)

50.00000	101.59381	430.79614	101.59381
100.00000	82.21809	249.76123	82.21809
150.00000	81.44847	164.33893	81.44847
200.00000	85.86721	83.46377	85.86721
250.00000	88.72982	82.12685	88.72982
300.00000	89.37962	25.99758	89.37962
350.00000	84.70439	22.35487	84.70439
400.00000	88.47067	12.59017	88.47067
450.00000	90.29818	-12.96558	90.29818
500.00000	90.45849	-4.92776	90.45849
550.00000	94.77052	-4.08368	94.77052
600.00000	98.38097	-13.40465	98.38097
650.00000	99.64966	-23.41563	99.64966
700.00000	102.60443	-33.84764	102.60443
750.00000	103.84755	-53.27470	103.84755
800.00000	104.39237	-72.89604	104.39237
850.00000	103.75121	-92.23200	103.75121
900.00000	101.73110	-107.74761	101.73110
950.00000	100.00676	-108.23595	100.00676
1000.00000	98.61442	-104.64215	98.61442
1050.00000	97.08571	-87.72238	97.08571
1100.00000	99.22342	-67.03456	99.22342
1150.00000	102.11377	-65.05804	102.11377
1200.00000	104.60336	-67.24154	104.60336
1250.00000	106.52541	-74.19985	106.52541
1300.00000	108.06836	-80.45883	108.06836
1350.00000	109.44330	-88.91946	109.44330
1400.00000	110.47504	-96.04382	110.47504
1450.00000	111.39481	-103.06712	111.39481
1500.00000	112.53562	-109.73037	112.53562
1550.00000	113.32067	-118.92127	113.32067
1600.00000	114.69938	-129.12389	114.69938
1650.00000	115.64444	-145.31837	115.64444
1700.00000	114.40834	-155.76278	114.40834
1750.00000	114.11085	-160.78055	114.11085
1800.00000	113.94193	-164.06958	113.94193
1850.00000	114.21060	-165.28310	114.21060
1900.00000	115.43526	-170.78402	115.43526
1950.00000	115.97104	-185.31282	115.97104
2000.00000	114.76964	-196.51574	114.76964
2050.00000	113.55927	-190.84542	113.55927
2100.00000	115.49472	-192.14899	115.49472
2150.00000	116.01413	-203.95055	116.01413
2200.00000	115.79738	-213.96423	115.79738
2250.00000	115.20794	-220.59995	115.20794
2300.00000	115.19589	-226.31556	115.19589
2350.00000	114.91732	-232.35358	114.91732
2400.00000	114.60953	-237.85083	114.60953
2450.00000	114.18833	-244.29622	114.18833
2500.00000	113.75274	-248.76661	113.75274
2550.00000	113.21684	-254.07051	113.21684
2600.00000	112.58051	-257.99177	112.58051
2650.00000	112.00351	-261.46692	112.00351
2700.00000	111.31717	-264.82720	111.31717
2750.00000	110.50208	-267.81400	110.50208
2800.00000	109.56298	-269.60234	109.56298
2850.00000	108.66854	-269.67986	108.66854
2900.00000	107.65196	-269.05536	107.65196
2950.00000	106.53289	-265.62606	106.53289
3000.00000	105.41454	-259.86724	105.41454
3050.00000	104.52851	-249.28216	104.52851
3100.00000	104.66489	-234.08659	104.66489
3150.00000	105.79235	-221.81893	105.79235
3200.00000	107.60384	-213.63988	107.60384
3250.00000	109.38152	-210.02435	109.38152
3300.00000	111.08145	-208.74880	111.08145
3350.00000	112.73292	-208.97333	112.73292
3400.00000	114.50945	-209.69017	114.50945
3450.00000	116.33178	-213.63054	116.33178
3500.00000	118.09500	-220.09974	118.09500
3550.00000	119.40650	-228.76163	119.40650
3600.00000	120.54304	-236.95691	120.54304
3650.00000	121.43287	-246.40777	121.43287
3700.00000	122.10996	-255.48033	122.10996
3750.00000	122.62011	-264.57808	122.62011
3800.00000	122.90449	-273.26302	122.90449
3850.00000	123.07188	-280.61571	123.07188
3900.00000	123.29986	-286.71137	123.29986
3950.00000	123.67035	-292.79694	123.67035
4000.00000	124.07471	-299.41493	124.07471
4050.00000	124.47032	-306.26269	124.47032
4100.00000	124.87689	-313.50179	124.87689
4150.00000	125.40662	-321.53815	125.40662
4200.00000	125.58288	-330.62287	125.58288
4250.00000	125.72779	-339.87658	125.72779
4300.00000	125.71984	-349.13630	125.71984
4350.00000	125.55224	-358.26030	125.55224
4400.00000	125.28330	-366.64946	125.28330
4450.00000	124.96001	-374.48206	124.96001
4500.00000	124.62160	-381.91043	124.62160
4550.00000	124.27214	-389.28675	124.27214
4600.00000	123.86952	-396.48469	123.86952
4650.00000	123.47225	-403.61652	123.47225
4700.00000	122.97887	-411.18335	122.97887
4750.00000	122.31981	-418.77820	122.31981
4800.00000	121.46170	-426.00911	121.46170
4850.00000	120.39579	-431.76646	120.39579
4900.00000	119.25257	-435.57768	119.25257
4950.00000	118.18125	-437.32490	118.18125
5000.00000	117.25571	-437.59167	117.25571
5050.00000	116.47758	-437.52078	116.47758
5100.00000	115.74073	-434.06661	115.74073
5150.00000	116.04867	-431.29628	116.04867
5200.00000	116.34096	-430.26359	116.34096
5250.00000	116.97937	-435.87900	116.97937
5300.00000	116.57310	-442.17440	116.57310
5350.00000	115.98272	-444.81659	115.98272
5400.00000	115.57001	-446.03253	115.57001
5450.00000	115.31367	-446.95858	115.31367
5500.00000	115.12192	-448.16206	115.12192
5550.00000	114.97538	-449.16325	114.97538
5600.00000	114.89878	-450.25758	114.89878
5650.00000	114.90181	-451.30129	114.90181
5700.00000	114.95393	-452.80083	114.95393
5750.00000	115.09624	-454.62735	115.09624
5800.00000	115.21641	-457.20533	115.21641
5850.00000	115.30347	-460.33262	115.30347
5900.00000	115.34517	-463.59239	115.34517
5950.00000	115.33024	-466.85406	115.33024
6000.00000	115.27656	-470.00731	115.27656
6050.00000	115.20687	-473.04968	115.20687
6100.00000	115.13263	-475.99866	115.13263
6150.00000	115.04840	-478.94643	115.04840
6200.00000	114.95464	-481.77912	114.95464
6250.00000	114.88144	-484.58814	114.88144
6300.00000	114.81046	-487.34535	114.81046
6350.00000	114.71986	-490.24416	114.71986
6400.00000	114.64430	-492.90052	114.64430
6450.00000	114.59480	-495.79783	114.59480
6500.00000	114.50911	-498.63013	114.50911
6550.00000	114.43090	-501.45254	114.43090
6600.00000	114.37575	-504.20294	114.37575
6650.00000	114.32663	-506.94606	114.32663
6700.00000	114.29940	-510.00806	114.29940
6750.00000	114.27076	-512.98782	114.27076
6800.00000	114.23365	-515.89668	114.23365
6850.00000	114.20933	-518.97882	114.20933
6900.00000	114.19411	-522.12311	114.19411
6950.00000	114.16240	-525.20816	114.16240
7000.00000	114.14126	-528.59315	114.14126
7050.00000	114.10358	-532.10050	114.10358
7100.00000	114.07308	-535.73367	114.07308
7150.00000	114.03109	-539.31732	114.03109
7200.00000	113.96708	-543.10895	113.96708
7250.00000	113.85412	-547.07249	113.85412
7300.00000	113.77851	-551.01922	113.77851
7350.00000	113.64394	-555.02313	113.64394
7400.00000	113.49998	-559.23114	113.49998
7450.00000	113.31322	-563.53913	113.31322
7500.00000	113.11679	-567.75366	113.11679
7550.00000	112.87508	-571.87058	112.87508
7600.00000	112.57744	-575.98455	112.57744
7650.00000	112.27769	-579.97613	112.27769
7700.00000	111.97976	-583.94444	111.97976
7750.00000	111.57885	-587.85858	111.57885
7800.00000	111.19038	-591.60833	111.19038
7850.00000	110.78552	-595.00877	110.78552
7900.00000	110.39354	-598.20811	110.39354
7950.00000	109.99216	-601.47035	109.99216
8000.00000	109.58647	-604.44970	109.58647
8050.00000	109.20214	-607.44391	109.20214
8100.00000	108.83261	-609.38297	108.83261
8150.00000	108.40855	-611.46871	108.40855
8200.00000	108.02078	-613.12225	108.02078
8250.00000	107.59297	-614.91668	107.59297
8300.00000	107.21626	-616.31602	107.21626
8350.00000	106.77053	-617.47845	106.77053
8400.00000	106.32961	-619.29465	106.32961
8450.00000	105.80536	-620.84860	105.80536
8500.00000	105.34144	-622.59826	105.34144
8550.00000	104.96442	-624.28516	104.96442
8600.00000	104.56623	-626.46101	104.56623
8650.00000	104.20985	-628.48955	104.20985
8700.00000	103.96246	-630.92979	103.96246
8750.00000	103.70155	-631.52048	103.70155
8800.00000	103.54368	-633.15090	103.54368
8850.00000	103.34346	-634.09599	103.34346
8900.00000	103.18297	-634.34324	103.18297
8950.00000	102.98269	-634.75791	102.98269
9000.00000	102.67653	-635.06609	102.67653
9050.00000	102.40474	-635.75132	102.40474
9100.00000	102.03666	-636.20888	102.03666
9150.00000	101.67411	-637.10910	101.67411
9200.00000	101.36520	-638.50239	101.36520
9250.00000	101.03101	-640.10637	101.03101
9300.00000	100.83301	-641.95958	100.83301
9350.00000	100.73689	-643.78087	100.73689
9400.00000	100.59693	-644.89706	100.59693
9450.00000	100.62586	-645.50473	100.62586
9500.00000	100.74361	-644.93589	100.74361
9550.00000	100.89614	-644.72409	100.89614
9600.00000	100.98427	-645.28805	100.98427
9650.00000	100.88939	-645.62728	100.88939
9700.00000	100.73291	-645.36011	100.73291
9750.00000	100.60614	-646.71791	100.60614
9800.00000	100.37077	-647.33189	100.37077
9850.00000	100.19503	-648.61057	100.19503
9900.00000	99.96446	-650.57930	99.96446
9950.00000	99.93043	-652.13236	99.93043
10000.00000	99.97483	-654.37224	99.97483
10050.00000	100.00752	-655.84125	100.00752
10100.00000	100.06929	-656.78672	100.06929
10150.00000	100.01376	-658.21795	100.01376
10200.00000	100.03650	-659.10645	100.03650
10250.00000	99.93520	-660.39439	99.93520
10300.00000	99.91501	-661.78033	99.91501
10350.00000	99.77845	-663.42033	99.77845
10400.00000	99.60751	-665.87939	99.60751
10450.00000	99.62980	-668.61106	99.62980
10500.00000	99.66805	-671.18730	99.66805
10550.00000	99.71847	-673.90390	99.71847
10600.00000	99.76102	-676.13092	99.76102
10650.00000	99.76486	-677.84665	99.76486
10700.00000	99.76129	-680.51870	99.76129
10750.00000	99.74832	-682.64925	99.74832
10800.00000	99.58681	-684.46449	99.58681
10850.00000	99.42786	-687.68625	99.42786
10900.00000	99.26650	-690.05612	99.26650
10950.00000	99.10805	-692.61471	99.10805
11000.00000	98.94166	-695.38302	98.94166
11050.00000	98.64504	-697.94971	98.64504
11100.00000	98.44906	-700.79732	98.44906
11150.00000	98.16315	-702.91049	98.16315
11200.00000	97.97623	-704.90906	97.97623
11250.00000	97.61611	-707.21479	97.61611
11300.00000	97.22533	-709.42772	97.22533
11350.00000	96.87532	-711.03213	96.87532
11400.00000	96.43387	-712.91707	96.43387
11450.00000	96.10643	-715.17656	96.10643
11500.00000	95.89603	-716.00509	95.89603
11550.00000	95.49056	-716.94835	95.49056
11600.00000	95.28651	-718.59574	95.28651
11650.00000	94.96133	-718.35740	94.96133
11700.00000	94.71489	-719.00837	94.71489
11750.00000	94.48749	-719.70386	94.48749
11800.00000	94.23703	-720.82436	94.23703
11850.00000	94.08020	-720.73372	94.08020
11900.00000	93.73341	-721.67157	93.73341
11950.00000	93.59628	-721.70251	93.59628
12000.00000	93.35693	-721.51238	93.35693
12050.00000	93.05398	-721.60874	93.05398
12100.00000	92.85427	-722.88204	92.85427
12150.00000	92.60901	-723.67607	92.60901
12200.00000	92.51163	-724.66308	92.51163
12250.00000	92.38028	-725.00772	92.38028
12300.00000	93.38771	-725.91838	93.38771
12350.00000	92.17491	-726.01021	92.17491
12400.00000	92.05010	-725.24497	92.05010
12450.00000	91.88917	-724.69520	91.88917
12500.00000	91.63948	-725.38767	91.63948
12550.00000	91.42977	-726.13044	91.42977
12600.00000	91.14492	-727.36110	91.14492
12650.00000	91.17808	-727.59283	91.17808
12700.00000	90.96107	-728.50426	90.96107
12750.00000	90.90291	-728.78532	90.90291
12800.00000	90.73345	-728.36706	90.73345
12850.00000	90.31973	-727.60312	90.31973
12900.00000	90.12199	-728.12785	90.12199
12950.00000	89.97992	-728.15264	89.97992
13000.00000	89.77479	-728.84500	89.77479
13050.00000	89.70419	-728.03968	89.70419
13100.00000	89.52640	-727.70604	89.52640
13150.00000	89.62989	-727.62998	89.62989
13200.00000	89.42888	-725.19353	89.42888
13250.00000	89.36365	-724.49017	89.36365
13300.00000	89.24803	-721.59254	89.24803
13350.00000	89.17780	-721.08306	89.17780
13400.00000	89.23239	-721.15515	89.23239
13450.00000	89.06291	-719.02967	89.06291
13500.00000	89.26933	-717.53540	89.26933
13550.00000	89.15729	-717.94601	89.15729
13600.00000	89.44637	-715.91734	89.44637
13650.00000	89.50176	-714.23630	89.50176
13700.00000	89.50959	-712.84129	89.50959
13750.00000	89.53138	-712.18950	89.53138
13800.00000	89.43842	-712.70674	89.43842
13850.00000	89.54908	-713.58297	89.54908
13900.00000	89.68902	-713.21591	89.68902
13950.00000	90.13893	-712.21353	90.13893
14000.00000	90.69310	-709.08763	90.69310
14050.00000	90.96438	-707.63025	90.96438
14100.00000	90.96665	-706.19854	90.96665
14150.00000	91.19915	-705.40923	91.19915
14200.00000	91.52797	-705.59714	91.52797
14250.00000	92.21649	-704.04676	92.21649
14300.00000	92.55150	-704.89534	92.55150
14350.00000	92.97586	-702.60337	92.97586
14400.00000	93.01558	-702.34166	93.01558
14450.00000	93.41841	-700.82695	93.41841
14500.00000	93.68984	-701.50437	93.68984
14550.00000	94.19640	-701.67232	94.19640
14600.00000	94.47072	-703.18744	94.47072
14650.00000	95.22059	-702.12874	95.22059
14700.00000	95.65446	-706.51448	95.65446
14750.00000	96.19010	-706.42341	96.19010
14800.00000	96.56255	-706.04378	96.56255
14850.00000	97.13466	-706.72702	97.13466
14900.00000	97.63544	-708.13994	97.63544
14950.00000	98.13824	-709.81852	98.13824
15000.00000	98.67784	-711.81513	98.67784
15050.00000	99.07185	-712.22225	99.07185
15100.00000	99.60968	-713.38092	99.60968
15150.00000	100.29502	-715.53311	100.29502
15200.00000	100.62139	-716.33795	100.62139
15250.00000	100.89752	-719.64838	100.89752
15300.00000	101.54275	-722.67427	101.54275
15350.00000	101.93458	-726.35572	101.93458
15400.00000	102.34157	-728.25271	102.34157
15450.00000	102.77006	-731.28506	102.77006
15500.00000	103.26817	-734.19387	103.26817
15550.00000	103.65931	-737.46604	103.65931
15600.00000	103.97758	-740.98687	103.97758
15650.00000	104.44828	-742.79455	104.44828
15700.00000	104.59131	-747.63796	104.59131
15750.00000	105.04147	-750.58253	105.04147
15800.00000	105.36275	-753.33167	105.36275
15850.00000	105.59959	-756.61687	105.59959
15900.00000	105.76019	-760.55921	105.76019
15950.00000	106.04327	-764.01497	106.04327
16000.00000	106.23500	-767.35152	106.23500
16050.00000	106.52306	-770.66367	106.52306
16100.00000	106.58470	-774.42652	106.58470
16150.00000	106.71485	-777.74556	106.71485
16200.00000	106.86937	-781.51095	106.86937
16250.00000	107.03232	-784.62196	107.03232
16300.00000	107.33569	-787.93006	107.33569
16350.00000	107.42438	-791.09651	107.42438
16400.00000	107.55772	-793.99231	107.55772
16450.00000	107.67180	-797.00348	107.67180
16500.00000	107.77036	-800.20868	107.77036
16550.00000	107.94023	-804.02576	107.94023
16600.00000	108.05392	-806.77967	108.05392
16650.00000	108.12561	-809.80842	108.12561
16700.00000	108.25167	-812.46538	108.25167
16750.00000	108.26993	-815.87759	108.26993
16800.00000	108.40437	-819.22402	108.40437
16850.00000	108.58895	-822.19321	108.58895
16900.00000	108.69392	-825.27193	108.69392
16950.00000	108.78992	-828.36402	108.78992
17000.00000	108.77042	-831.53177	108.77042
17050.00000	108.92486	-833.87903	108.92486
17100.00000	108.92974	-835.97855	108.92974
17150.00000	109.13587	-839.62109	109.13587
17200.00000	109.23021	-842.37995	109.23021
17250.00000	109.27651	-846.02255	109.27651
17300.00000	109.45107	-848.95114	109.45107
17350.00000	109.40936	-851.71289	109.40936
17400.00000	109.58003	-854.81356	109.58003
17450.00000	109.59103	-858.39111	109.59103
17500.00000	109.71184	-861.40089	109.71184
17550.00000	109.78827	-864.56118	109.78827
17600.00000	109.94975	-867.27424	109.94975
17650.00000	109.98821	-871.28320	109.98821
17700.00000	110.02881	-874.65558	110.02881
17750.00000	110.20303	-877.32874	110.20303
17800.00000	110.15486	-881.25722	110.15486
17850.00000	110.21347	-884.16366	110.21347
17900.00000	110.22554	-887.77234	110.22554
17950.00000	110.32130	-891.40900	110.32130
18000.00000	110.32006	-895.32587	110.32006
18050.00000	110.45155	-898.22319	110.45155
18100.00000	110.38167	-902.30165	110.38167
18150.00000	110.35348	-905.19476	110.35348
18200.00000	110.26628	-909.22703	110.26628
18250.00000	110.29936	-911.96237	110.29936
18300.00000	110.30631	-915.49403	110.30631
18350.00000	110.24803	-918.74844	110.24803
18400.00000	110.14270	-922.41042	110.14270
18450.00000	110.03095	-926.93997	110.03095
18500.00000	109.96193	-930.12350	109.96193
18550.00000	109.84883	-932.78309	109.84883
18600.00000	109.84516	-936.53773	109.84516
18650.00000	109.61722	-939.43907	109.61722
18700.00000	109.49105	-943.06741	109.49105
18750.00000	109.41923	-946.01205	109.41923
18800.00000	109.41023	-948.45899	109.41023
18850.00000	109.16237	-951.71783	109.16237
18900.00000	109.01756	-954.38760	109.01756
18950.00000	108.91777	-957.71075	108.91777
19000.00000	108.64209	-960.11055	108.64209
19050.00000	108.65133	-962.87573	108.65133
19100.00000	108.47658	-965.48500	108.47658
19150.00000	108.48724	-967.89785	108.48724
19200.00000	108.33096	-970.10255	108.33096
19250.00000	108.19261	-973.75518	108.19261
19300.00000	108.00797	-975.60286	108.00797
19350.00000	107.92148	-978.19338	107.92148
19400.00000	107.77158	-980.50024	107.77158
19450.00000	107.76696	-982.45263	107.76696
19500.00000	107.58140	-985.74576	107.58140
19550.00000	107.51950	-988.00338	107.51950
19600.00000	107.47435	-990.99051	107.47435
19650.00000	107.32368	-992.92131	107.32368
19700.00000	107.13619	-995.59379	107.13619
19750.00000	107.02089	-997.39432	107.02089
19800.00000	107.00427	-1000.58271	107.00427
19850.00000	106.93060	-1002.77087	106.93060
19900.00000	106.76839	-1005.94422	106.76839
19950.00000	106.64603	-1008.18975	106.64603
20000.00000	106.54896	-1010.68313	106.54896
20050.00000	106.45066	-1013.09434	106.45066
20100.00000	106.24733	-1015.54034	106.24733
20150.00000	106.19073	-1017.16789	106.19073
20200.00000	106.02753	-1020.27413	106.02753
20250.00000	105.84726	-1022.45694	105.84726
20300.00000	105.62867	-1024.89603	105.62867
20350.00000	105.56263	-1027.21972	105.56263
20400.00000	105.33866	-1028.69967	105.33866
20450.00000	105.09481	-1030.96035	105.09481
20500.00000	105.00050	-1033.23181	105.00050
20550.00000	104.60038	-1034.34527	104.60038
20600.00000	104.52158	-1036.00224	104.52158
20650.00000	104.35294	-1037.64439	104.35294
20700.00000	104.11135	-1038.97506	104.11135
20750.00000	103.99213	-1040.17746	103.99213
20800.00000	103.80262	-1040.98405	103.80262
20850.00000	103.71410	-1042.12985	103.71410
20900.00000	103.53326	-1042.98392	103.53326
20950.00000	103.42559	-1043.24774	103.42559
21000.00000	103.35020	-1043.69748	103.35020
21050.00000	103.46008	-1043.99409	103.46008
21100.00000	103.41687	-1044.32586	103.41687
21150.00000	103.53030	-1045.28171	103.53030
21200.00000	103.64785	-1045.63789	103.64785
21250.00000	103.74194	-1047.71028	103.74194
21300.00000	103.90666	-1048.40850	103.90666
21350.00000	104.02277	-1049.49341	104.02277
21400.00000	104.12757	-1051.61640	104.12757
21450.00000	104.26419	-1053.36248	104.26419
21500.00000	104.39478	-1055.60169	104.39478
21550.00000	104.39362	-1057.32022	104.39362
21600.00000	104.54125	-1059.76466	104.54125
21650.00000	104.57168	-1062.13609	104.57168
21700.00000	104.60209	-1064.11127	104.60209
21750.00000	104.64431	-1066.41601	104.64431
21800.00000	104.65048	-1068.73417	104.65048
21850.00000	104.58124	-1070.79800	104.58124
21900.00000	104.60577	-1073.00804	104.60577
21950.00000	104.55511	-1074.76705	104.55511
22000.00000	104.59401	-1076.48960	104.59401
22050.00000	104.52817	-1078.35180	104.52817
22100.00000	104.49883	-1080.24445	104.49883
22150.00000	104.46019	-1082.24715	104.46019
22200.00000	104.53890	-1084.04483	104.53890
22250.00000	104.45024	-1085.25845	104.45024
22300.00000	104.34910	-1087.09329	104.34910
22350.00000	104.47598	-1089.06389	104.47598
22400.00000	104.51008	-1091.08204	104.51008
22450.00000	104.40451	-1092.54645	104.40451
22500.00000	104.37238	-1093.23108	104.37238
22550.00000	104.39548	-1095.25367	104.39548
