---ACOUSTIC CALIBRATION---
Filename: C:\Data\AZH DATA\AZH51\RightPrimary.calib
Date: 8/27/2019 11:13:08 AM
Format: 4
Probe Tube Correction File: C:\Data\Probe Tube Calibrations\50_ProbeTube.calib
Experiment VIs: 850
EPL_CFTS.exe V12.0.1 (2012)
DAQmx V9.6

Attenuation (dB): 40.000000
Min Freq (Hz): 50.000000
Max Freq (Hz): 49950.000000
Freq Step (Hz): 50.000000
Sample Rate (Hz): 100000.000000
[Smoothing]
Method=None
MA.Iterations=0
MA.Length=0
Loess.Length=0
Loess.Type=Linear
Loess.Robust=FALSE


Freq(Hz)	Mag(dB)	Phase(deg)	Unsmoothed(dB)

50.00000	97.46961	385.04522	97.46961
100.00000	87.77112	235.94433	87.77112
150.00000	77.44075	145.15817	77.44075
200.00000	82.15803	87.96523	82.15803
250.00000	91.51957	105.29547	91.51957
300.00000	89.96927	37.16070	89.96927
350.00000	79.69505	66.66990	79.69505
400.00000	84.24043	15.10832	84.24043
450.00000	86.21627	-11.85230	86.21627
500.00000	86.47659	21.50409	86.47659
550.00000	91.88082	 9.39866	91.88082
600.00000	93.78459	-2.12097	93.78459
650.00000	96.81909	-12.14575	96.81909
700.00000	99.73160	-26.65152	99.73160
750.00000	101.51554	-46.10135	101.51554
800.00000	102.16499	-70.24775	102.16499
850.00000	101.48830	-87.11109	101.48830
900.00000	99.50284	-103.09740	99.50284
950.00000	97.88791	-102.21914	97.88791
1000.00000	96.15848	-98.40826	96.15848
1050.00000	94.82720	-80.21613	94.82720
1100.00000	97.36083	-60.05119	97.36083
1150.00000	100.33280	-59.39649	100.33280
1200.00000	102.87818	-61.43589	102.87818
1250.00000	104.51735	-70.52171	104.51735
1300.00000	106.07272	-75.46176	106.07272
1350.00000	107.38568	-85.26195	107.38568
1400.00000	108.20337	-92.04880	108.20337
1450.00000	109.21813	-98.93518	109.21813
1500.00000	110.34521	-106.10098	110.34521
1550.00000	111.20356	-115.08066	111.20356
1600.00000	112.58939	-125.26195	112.58939
1650.00000	113.44994	-141.85943	113.44994
1700.00000	112.16373	-151.58474	112.16373
1750.00000	111.80314	-156.44698	111.80314
1800.00000	111.58928	-159.90962	111.58928
1850.00000	111.95520	-160.32113	111.95520
1900.00000	113.25882	-165.91263	113.25882
1950.00000	113.71227	-180.31991	113.71227
2000.00000	112.55040	-191.33931	112.55040
2050.00000	111.49116	-185.03956	111.49116
2100.00000	113.42584	-187.54111	113.42584
2150.00000	113.88313	-199.25822	113.88313
2200.00000	113.72916	-208.73458	113.72916
2250.00000	113.05609	-215.63689	113.05609
2300.00000	113.10572	-220.98908	113.10572
2350.00000	112.79508	-227.33784	112.79508
2400.00000	112.44234	-232.72687	112.44234
2450.00000	112.10270	-239.05898	112.10270
2500.00000	111.57974	-243.95695	111.57974
2550.00000	111.05451	-248.93301	111.05451
2600.00000	110.36826	-253.07117	110.36826
2650.00000	109.70144	-256.47652	109.70144
2700.00000	108.97595	-259.74274	108.97595
2750.00000	108.03245	-262.06442	108.03245
2800.00000	106.96779	-262.79676	106.96779
2850.00000	105.95253	-262.28209	105.95253
2900.00000	104.76587	-260.03231	104.76587
2950.00000	103.52181	-253.64955	103.52181
3000.00000	102.45667	-243.59777	102.45667
3050.00000	102.11921	-227.69276	102.11921
3100.00000	103.37895	-210.69992	103.37895
3150.00000	105.53698	-201.36811	105.53698
3200.00000	107.65171	-198.14338	107.65171
3250.00000	109.57123	-198.10850	109.57123
3300.00000	111.26804	-199.67180	111.26804
3350.00000	112.91699	-202.22462	112.91699
3400.00000	114.60303	-205.03135	114.60303
3450.00000	116.28151	-210.59083	116.28151
3500.00000	117.90606	-218.51989	117.90606
3550.00000	119.02660	-228.41198	119.02660
3600.00000	119.98328	-237.50841	119.98328
3650.00000	120.66463	-247.56764	120.66463
3700.00000	121.12077	-257.00436	121.12077
3750.00000	121.40942	-265.97392	121.40942
3800.00000	121.53550	-274.05417	121.53550
3850.00000	121.55959	-280.66104	121.55959
3900.00000	121.73416	-285.95561	121.73416
3950.00000	122.08832	-291.44233	122.08832
4000.00000	122.47822	-297.58976	122.47822
4050.00000	122.86490	-304.17094	122.86490
4100.00000	123.24831	-311.25567	123.24831
4150.00000	123.74064	-319.04201	123.74064
4200.00000	123.87139	-327.66400	123.87139
4250.00000	123.99307	-336.42605	123.99307
4300.00000	123.98300	-345.01834	123.98300
4350.00000	123.84069	-353.53903	123.84069
4400.00000	123.61223	-361.38324	123.61223
4450.00000	123.34866	-368.75893	123.34866
4500.00000	123.08641	-375.83929	123.08641
4550.00000	122.81993	-382.88237	122.81993
4600.00000	122.49212	-389.97052	122.49212
4650.00000	122.17440	-397.03033	122.17440
4700.00000	121.75995	-404.64492	121.75995
4750.00000	121.17066	-412.38968	121.17066
4800.00000	120.36447	-419.73853	120.36447
4850.00000	119.34846	-425.69843	119.34846
4900.00000	118.25733	-429.59220	118.25733
4950.00000	117.21446	-431.41919	117.21446
5000.00000	116.37329	-431.76502	116.37329
5050.00000	115.67290	-431.81829	115.67290
5100.00000	115.06144	-428.54348	115.06144
5150.00000	115.45731	-427.16810	115.45731
5200.00000	115.81547	-428.57664	115.81547
5250.00000	115.89942	-435.16886	115.89942
5300.00000	115.24986	-439.38438	115.24986
5350.00000	114.69618	-440.41996	114.69618
5400.00000	114.39328	-440.78338	114.39328
5450.00000	114.22054	-441.23732	114.22054
5500.00000	114.12962	-441.83864	114.12962
5550.00000	114.13533	-442.44249	114.13533
5600.00000	114.23528	-443.44617	114.23528
5650.00000	114.42958	-444.94882	114.42958
5700.00000	114.63563	-447.49912	114.63563
5750.00000	114.80762	-450.62972	114.80762
5800.00000	114.87768	-454.30637	114.87768
5850.00000	114.89195	-457.99238	114.89195
5900.00000	114.85112	-461.45948	114.85112
5950.00000	114.79152	-464.87759	114.79152
6000.00000	114.72267	-467.90825	114.72267
6050.00000	114.62387	-471.01294	114.62387
6100.00000	114.54958	-474.05435	114.54958
6150.00000	114.47104	-476.99129	114.47104
6200.00000	114.36501	-479.84123	114.36501
6250.00000	114.28091	-482.67791	114.28091
6300.00000	114.21505	-485.54722	114.21505
6350.00000	114.12071	-488.52573	114.12071
6400.00000	114.03050	-491.11391	114.03050
6450.00000	113.99110	-493.94146	113.99110
6500.00000	113.90905	-496.74979	113.90905
6550.00000	113.83409	-499.58061	113.83409
6600.00000	113.78098	-502.36813	113.78098
6650.00000	113.73469	-505.04920	113.73469
6700.00000	113.69908	-507.97156	113.69908
6750.00000	113.66614	-510.77821	113.66614
6800.00000	113.66790	-513.62485	113.66790
6850.00000	113.65541	-516.53897	113.65541
6900.00000	113.65928	-519.45590	113.65928
6950.00000	113.66594	-522.40435	113.66594
7000.00000	113.68779	-525.55772	113.68779
7050.00000	113.69312	-528.88194	113.69312
7100.00000	113.73257	-532.25453	113.73257
7150.00000	113.76246	-535.70169	113.76246
7200.00000	113.76750	-539.37836	113.76750
7250.00000	113.75546	-543.21281	113.75546
7300.00000	113.77939	-547.17531	113.77939
7350.00000	113.74630	-551.20893	113.74630
7400.00000	113.71675	-555.52811	113.71675
7450.00000	113.64436	-559.97817	113.64436
7500.00000	113.56505	-564.42567	113.56505
7550.00000	113.45529	-569.02372	113.45529
7600.00000	113.29987	-573.60786	113.29987
7650.00000	113.13035	-578.24165	113.13035
7700.00000	112.96090	-583.04732	112.96090
7750.00000	112.69215	-587.89962	112.69215
7800.00000	112.40574	-592.60919	112.40574
7850.00000	112.08908	-597.15562	112.08908
7900.00000	111.76696	-601.49685	111.76696
7950.00000	111.40686	-605.89612	111.40686
8000.00000	111.03465	-610.08821	111.03465
8050.00000	110.63222	-614.32131	110.63222
8100.00000	110.23571	-617.45703	110.23571
8150.00000	109.75133	-620.93339	109.75133
8200.00000	109.29590	-623.87346	109.29590
8250.00000	108.79710	-626.91540	108.79710
8300.00000	108.31067	-629.64119	108.31067
8350.00000	107.78827	-632.04657	107.78827
8400.00000	107.24650	-634.93334	107.24650
8450.00000	106.66679	-637.54345	106.66679
8500.00000	106.12794	-640.16374	106.12794
8550.00000	105.66092	-642.52272	105.66092
8600.00000	105.19257	-645.21863	105.19257
8650.00000	104.74360	-647.44005	104.74360
8700.00000	104.38862	-649.93432	104.38862
8750.00000	103.98949	-650.76331	103.98949
8800.00000	103.66282	-652.43231	103.66282
8850.00000	103.31461	-653.62180	103.31461
8900.00000	102.96960	-654.28743	102.96960
8950.00000	102.60184	-655.20075	102.60184
9000.00000	102.12251	-656.10277	102.12251
9050.00000	101.71077	-657.28179	101.71077
9100.00000	101.23897	-658.40097	101.23897
9150.00000	100.80859	-659.86225	100.80859
9200.00000	100.46118	-661.80079	100.46118
9250.00000	100.06543	-663.57810	100.06543
9300.00000	99.86885	-665.35096	99.86885
9350.00000	99.72945	-667.02054	99.72945
9400.00000	99.50244	-667.69683	99.50244
9450.00000	99.42263	-667.95803	99.42263
9500.00000	99.39192	-667.32116	99.39192
9550.00000	99.36061	-667.16690	99.36061
9600.00000	99.25598	-667.65491	99.25598
9650.00000	98.98559	-668.23258	98.98559
9700.00000	98.69540	-668.34448	98.69540
9750.00000	98.45843	-669.99888	98.45843
9800.00000	98.12251	-671.13828	98.12251
9850.00000	97.89694	-672.56952	97.89694
9900.00000	97.61992	-674.55540	97.61992
9950.00000	97.51454	-675.73420	97.51454
10000.00000	97.47243	-677.49686	97.47243
10050.00000	97.38817	-678.33175	97.38817
10100.00000	97.28256	-678.79482	97.28256
10150.00000	97.08074	-679.74348	97.08074
10200.00000	96.92103	-680.17740	96.92103
10250.00000	96.67342	-681.29537	96.67342
10300.00000	96.53040	-682.58897	96.53040
10350.00000	96.26710	-684.04405	96.26710
10400.00000	96.03197	-686.00022	96.03197
10450.00000	96.00066	-688.33242	96.00066
10500.00000	96.01598	-690.30336	96.01598
10550.00000	96.01209	-692.08309	96.01209
10600.00000	95.99526	-693.42572	95.99526
10650.00000	95.93220	-694.14436	95.93220
10700.00000	95.87728	-696.08558	95.87728
10750.00000	95.78858	-697.48739	95.78858
10800.00000	95.59494	-698.70939	95.59494
10850.00000	95.41534	-701.57030	95.41534
10900.00000	95.24392	-703.42573	95.24392
10950.00000	95.10469	-705.32533	95.10469
11000.00000	94.97399	-707.59822	94.97399
11050.00000	94.69889	-709.79973	94.69889
11100.00000	94.54827	-712.14937	94.54827
11150.00000	94.25028	-713.82368	94.25028
11200.00000	94.07961	-715.42995	94.07961
11250.00000	93.74425	-717.53981	93.74425
11300.00000	93.33417	-719.65273	93.33417
11350.00000	92.97082	-721.09825	92.97082
11400.00000	92.52568	-723.14226	92.52568
11450.00000	92.20374	-725.37863	92.20374
11500.00000	91.97339	-726.08252	91.97339
11550.00000	91.55098	-726.94524	91.55098
11600.00000	91.31517	-728.41746	91.31517
11650.00000	90.94370	-728.00748	90.94370
11700.00000	90.62270	-728.44219	90.62270
11750.00000	90.34083	-728.98499	90.34083
11800.00000	90.03561	-729.75869	90.03561
11850.00000	89.85253	-728.94320	89.85253
11900.00000	89.46049	-729.26352	89.46049
11950.00000	89.23057	-728.90717	89.23057
12000.00000	88.95612	-727.91412	88.95612
12050.00000	88.63013	-727.37635	88.63013
12100.00000	88.40840	-727.85232	88.40840
12150.00000	88.21305	-728.03318	88.21305
12200.00000	88.19238	-728.44960	88.19238
12250.00000	88.06793	-728.02256	88.06793
12300.00000	89.21851	-728.02703	89.21851
12350.00000	88.07976	-727.26371	88.07976
12400.00000	87.99449	-725.94727	87.99449
12450.00000	87.82266	-724.79264	87.82266
12500.00000	87.71836	-725.55723	87.71836
12550.00000	87.63318	-725.79497	87.63318
12600.00000	87.47940	-727.10024	87.47940
12650.00000	87.68500	-727.92168	87.68500
12700.00000	87.68709	-728.41893	87.68709
12750.00000	87.74190	-728.47953	87.74190
12800.00000	87.67083	-728.19854	87.67083
12850.00000	87.23439	-727.81388	87.23439
12900.00000	87.15438	-729.03929	87.15438
12950.00000	87.09702	-730.06821	87.09702
13000.00000	86.88474	-731.62715	86.88474
13050.00000	86.89356	-731.56384	86.89356
13100.00000	86.74558	-732.39228	86.74558
13150.00000	86.82552	-733.26685	86.82552
13200.00000	86.73000	-732.16637	86.73000
13250.00000	86.60272	-732.00402	86.60272
13300.00000	86.34986	-729.76554	86.34986
13350.00000	86.16765	-730.23035	86.16765
13400.00000	86.12991	-730.65117	86.12991
13450.00000	85.80719	-730.40425	85.80719
13500.00000	85.94633	-729.16875	85.94633
13550.00000	85.79403	-729.45383	85.79403
13600.00000	85.91993	-727.88865	85.91993
13650.00000	85.74251	-727.33903	85.74251
13700.00000	85.45326	-725.46991	85.45326
13750.00000	85.33508	-724.60854	85.33508
13800.00000	85.03934	-726.02887	85.03934
13850.00000	85.02916	-727.62226	85.02916
13900.00000	85.10586	-726.28569	85.10586
13950.00000	85.40678	-724.79262	85.40678
14000.00000	85.67356	-720.83727	85.67356
14050.00000	85.86275	-718.84489	85.86275
14100.00000	85.61793	-717.41340	85.61793
14150.00000	85.54898	-715.93859	85.54898
14200.00000	85.64285	-716.64778	85.64285
14250.00000	86.22199	-714.58934	86.22199
14300.00000	86.55516	-713.93846	86.55516
14350.00000	86.83800	-710.43817	86.83800
14400.00000	86.74714	-708.64566	86.74714
14450.00000	86.87428	-706.06671	86.87428
14500.00000	86.99766	-705.60787	86.99766
14550.00000	87.45931	-704.81536	87.45931
14600.00000	87.65315	-705.93277	87.65315
14650.00000	88.24040	-703.36378	88.24040
14700.00000	88.69800	-706.36104	88.69800
14750.00000	89.17269	-704.68897	89.17269
14800.00000	89.49572	-703.05827	89.49572
14850.00000	89.83850	-701.98921	89.83850
14900.00000	90.27200	-702.02067	90.27200
14950.00000	90.77029	-701.94172	90.77029
15000.00000	91.29617	-702.77258	91.29617
15050.00000	91.80081	-701.95860	91.80081
15100.00000	92.44533	-700.98130	92.44533
15150.00000	93.04413	-701.36399	93.04413
15200.00000	93.35942	-700.11788	93.35942
15250.00000	93.67257	-701.61347	93.67257
15300.00000	94.33945	-703.34125	94.33945
15350.00000	94.82232	-706.21267	94.82232
15400.00000	95.43182	-706.02174	95.43182
15450.00000	95.98459	-707.41989	95.98459
15500.00000	96.57887	-708.49778	96.57887
15550.00000	97.08225	-710.37469	97.08225
15600.00000	97.56771	-712.24265	97.56771
15650.00000	98.21149	-712.84422	98.21149
15700.00000	98.60784	-716.89278	98.60784
15750.00000	99.26278	-718.66818	99.26278
15800.00000	99.79048	-720.44951	99.79048
15850.00000	100.27349	-722.03679	100.27349
15900.00000	100.69732	-725.21987	100.69732
15950.00000	101.19585	-728.30785	101.19585
16000.00000	101.65623	-731.04932	101.65623
16050.00000	102.21300	-733.99934	102.21300
16100.00000	102.57168	-737.59671	102.57168
16150.00000	102.97335	-740.54941	102.97335
16200.00000	103.38886	-744.34221	103.38886
16250.00000	103.77465	-747.63240	103.77465
16300.00000	104.32671	-751.35264	104.32671
16350.00000	104.64877	-755.05744	104.64877
16400.00000	104.98230	-758.35004	104.98230
16450.00000	105.33442	-761.83350	105.33442
16500.00000	105.58527	-765.85946	105.58527
16550.00000	105.90876	-770.14417	105.90876
16600.00000	106.17897	-773.89368	106.17897
16650.00000	106.35866	-777.58546	106.35866
16700.00000	106.64112	-781.37363	106.64112
16750.00000	106.75192	-785.44448	106.75192
16800.00000	106.96320	-789.50896	106.96320
16850.00000	107.21667	-793.28401	107.21667
16900.00000	107.38874	-797.30347	107.38874
16950.00000	107.53688	-801.01920	107.53688
17000.00000	107.56237	-804.85252	107.56237
17050.00000	107.74222	-807.84060	107.74222
17100.00000	107.76549	-810.49157	107.76549
17150.00000	108.00798	-814.86964	108.00798
17200.00000	108.10252	-818.18667	108.10252
17250.00000	108.14523	-822.15777	108.14523
17300.00000	108.32697	-825.57700	108.32697
17350.00000	108.30160	-828.64284	108.30160
17400.00000	108.44822	-832.01442	108.44822
17450.00000	108.46537	-835.86557	108.46537
17500.00000	108.56621	-839.14770	108.56621
17550.00000	108.65001	-842.44746	108.65001
17600.00000	108.80235	-845.43459	108.80235
17650.00000	108.84312	-849.60375	108.84312
17700.00000	108.86969	-852.92837	108.86969
17750.00000	109.04473	-855.57237	109.04473
17800.00000	108.99391	-859.56588	108.99391
17850.00000	109.06675	-862.40366	109.06675
17900.00000	109.09927	-865.86474	109.09927
17950.00000	109.22914	-869.42445	109.22914
18000.00000	109.26288	-873.23041	109.26288
18050.00000	109.41699	-876.15289	109.41699
18100.00000	109.38784	-879.99427	109.38784
18150.00000	109.41034	-882.75960	109.41034
18200.00000	109.39411	-886.81038	109.39411
18250.00000	109.48529	-889.51734	109.48529
18300.00000	109.56585	-892.99528	109.56585
18350.00000	109.58079	-896.37054	109.58079
18400.00000	109.54535	-900.09156	109.54535
18450.00000	109.50408	-904.70416	109.50408
18500.00000	109.52379	-908.03229	109.52379
18550.00000	109.50830	-911.05163	109.50830
18600.00000	109.57575	-914.98371	109.57575
18650.00000	109.40813	-918.19514	109.40813
18700.00000	109.34516	-922.16447	109.34516
18750.00000	109.35308	-925.45052	109.35308
18800.00000	109.39686	-928.37860	109.39686
18850.00000	109.21444	-931.99240	109.21444
18900.00000	109.10699	-935.30583	109.10699
18950.00000	109.07163	-939.02177	109.07163
19000.00000	108.82470	-941.82354	108.82470
19050.00000	108.86980	-945.15038	108.86980
19100.00000	108.72239	-948.19224	108.72239
19150.00000	108.74970	-951.13867	108.74970
19200.00000	108.61556	-953.87233	108.61556
19250.00000	108.49965	-957.97369	108.49965
19300.00000	108.32680	-960.26680	108.32680
19350.00000	108.24587	-963.36456	108.24587
19400.00000	108.09883	-966.07406	108.09883
19450.00000	108.08337	-968.42815	108.08337
19500.00000	107.89184	-972.14647	107.89184
19550.00000	107.81151	-974.75635	107.81151
19600.00000	107.76657	-978.18436	107.76657
19650.00000	107.58984	-980.42921	107.58984
19700.00000	107.39312	-983.41901	107.39312
19750.00000	107.26597	-985.54196	107.26597
19800.00000	107.22599	-989.06387	107.22599
19850.00000	107.13406	-991.47451	107.13406
19900.00000	106.97200	-994.96592	106.97200
19950.00000	106.81971	-997.47890	106.81971
20000.00000	106.70016	-1000.14535	106.70016
20050.00000	106.58912	-1002.79531	106.58912
20100.00000	106.35385	-1005.46771	106.35385
20150.00000	106.27314	-1007.19666	106.27314
20200.00000	106.09925	-1010.47145	106.09925
20250.00000	105.88140	-1012.87188	105.88140
20300.00000	105.65519	-1015.27653	105.65519
20350.00000	105.54830	-1017.87392	105.54830
20400.00000	105.30556	-1019.38036	105.30556
20450.00000	105.03803	-1021.63395	105.03803
20500.00000	104.92255	-1024.09495	104.92255
20550.00000	104.50280	-1025.21233	104.50280
20600.00000	104.38200	-1026.75564	104.38200
20650.00000	104.20562	-1028.37282	104.20562
20700.00000	103.94878	-1029.63516	103.94878
20750.00000	103.82450	-1030.75981	103.82450
20800.00000	103.62889	-1031.48013	103.62889
20850.00000	103.53383	-1032.48303	103.53383
20900.00000	103.36208	-1033.17688	103.36208
20950.00000	103.25045	-1033.30816	103.25045
21000.00000	103.19854	-1033.67581	103.19854
21050.00000	103.32303	-1033.71760	103.32303
21100.00000	103.33590	-1033.97461	103.33590
21150.00000	103.48735	-1034.72664	103.48735
21200.00000	103.65302	-1035.13992	103.65302
21250.00000	103.79345	-1037.15165	103.79345
21300.00000	104.00569	-1037.88376	104.00569
21350.00000	104.18017	-1039.23810	104.18017
21400.00000	104.34521	-1041.29436	104.34521
21450.00000	104.52544	-1043.36737	104.52544
21500.00000	104.70255	-1045.84877	104.70255
21550.00000	104.74559	-1047.94920	104.74559
21600.00000	104.92217	-1050.66134	104.92217
21650.00000	104.96653	-1053.56129	104.96653
21700.00000	105.02628	-1055.79061	105.02628
21750.00000	105.06010	-1058.42606	105.06010
21800.00000	105.11013	-1061.22975	105.11013
21850.00000	105.05141	-1063.64688	105.05141
21900.00000	105.05747	-1066.22469	105.05747
21950.00000	104.99583	-1068.44205	104.99583
22000.00000	105.02569	-1070.62035	105.02569
22050.00000	104.98106	-1072.59225	104.98106
22100.00000	104.92304	-1075.04974	104.92304
22150.00000	104.86229	-1076.81765	104.86229
22200.00000	104.91251	-1078.97206	104.91251
22250.00000	104.82406	-1080.60986	104.82406
22300.00000	104.71690	-1082.75658	104.71690
22350.00000	104.82089	-1084.86714	104.82089
22400.00000	104.77969	-1086.78731	104.77969
22450.00000	104.68938	-1088.47623	104.68938
22500.00000	104.62441	-1089.40899	104.62441
22550.00000	104.61889	-1091.88784	104.61889
22600.00000	104.61346	-1094.47462	104.61346
