---ACOUSTIC CALIBRATION---
Filename: C:\Data\AZH DATA\AZH51\RightSecondary.calib
Date: 8/27/2019 11:16:48 AM
Format: 4
Probe Tube Correction File: C:\Data\Probe Tube Calibrations\50_ProbeTube.calib
Experiment VIs: 850
EPL_CFTS.exe V12.0.1 (2012)
DAQmx V9.6

Attenuation (dB): 40.000000
Min Freq (Hz): 50.000000
Max Freq (Hz): 49950.000000
Freq Step (Hz): 50.000000
Sample Rate (Hz): 100000.000000
[Smoothing]
Method=None
MA.Iterations=0
MA.Length=0
Loess.Length=0
Loess.Type=Linear
Loess.Robust=FALSE


Freq(Hz)	Mag(dB)	Phase(deg)	Unsmoothed(dB)

50.00000	100.71759	514.80864	100.71759
100.00000	84.52453	537.22524	84.52453
150.00000	85.85461	491.56673	85.85461
200.00000	86.82745	438.34469	86.82745
250.00000	94.24403	420.51908	94.24403
300.00000	91.78450	334.65949	91.78450
350.00000	88.53269	325.26087	88.53269
400.00000	89.62760	306.07349	89.62760
450.00000	87.83927	289.78128	87.83927
500.00000	87.70343	301.39825	87.70343
550.00000	88.63102	320.47205	88.63102
600.00000	91.43584	323.99519	91.43584
650.00000	94.58822	328.17856	94.58822
700.00000	97.38663	319.80681	97.38663
750.00000	99.81354	314.31957	99.81354
800.00000	102.34036	304.29566	102.34036
850.00000	104.48582	293.72744	104.48582
900.00000	106.00584	276.65879	106.00584
950.00000	107.28711	261.01310	107.28711
1000.00000	107.31742	243.46784	107.31742
1050.00000	106.84550	234.12400	106.84550
1100.00000	107.02424	222.51784	107.02424
1150.00000	106.13955	212.99882	106.13955
1200.00000	105.95578	211.38363	105.95578
1250.00000	106.02847	200.94131	106.02847
1300.00000	105.31083	195.64608	105.31083
1350.00000	104.67598	190.48532	104.67598
1400.00000	103.96505	190.39825	103.96505
1450.00000	104.10816	189.77358	104.10816
1500.00000	103.98818	188.89317	103.98818
1550.00000	104.20234	186.43187	104.20234
1600.00000	104.90874	184.25313	104.90874
1650.00000	105.74532	175.54255	105.74532
1700.00000	104.49148	171.74680	104.49148
1750.00000	104.47065	170.63554	104.47065
1800.00000	104.27194	168.47244	104.27194
1850.00000	104.24678	170.60932	104.24678
1900.00000	105.28475	170.49638	105.28475
1950.00000	106.10843	161.45761	106.10843
2000.00000	105.79778	151.99412	105.79778
2050.00000	104.80002	148.72180	104.80002
2100.00000	104.75227	147.13947	104.75227
2150.00000	104.28548	143.32645	104.28548
2200.00000	103.73414	140.84739	103.73414
2250.00000	102.60733	140.89951	102.60733
2300.00000	102.56060	144.61530	102.56060
2350.00000	102.46893	148.20057	102.46893
2400.00000	102.90306	150.35461	102.90306
2450.00000	103.02666	149.47696	103.02666
2500.00000	103.24690	152.58493	103.24690
2550.00000	103.77325	155.42888	103.77325
2600.00000	104.94091	157.55111	104.94091
2650.00000	106.43316	154.01681	106.43316
2700.00000	107.45784	145.78555	107.45784
2750.00000	107.69392	135.95644	107.69392
2800.00000	107.45298	128.69128	107.45298
2850.00000	107.07678	123.90663	107.07678
2900.00000	106.74375	119.88582	106.74375
2950.00000	106.44489	117.35725	106.44489
3000.00000	106.21460	114.57525	106.21460
3050.00000	105.90027	112.25825	105.90027
3100.00000	105.82642	110.37306	105.82642
3150.00000	105.55425	105.94694	105.55425
3200.00000	105.00124	103.16177	105.00124
3250.00000	104.34867	101.26018	104.34867
3300.00000	103.54966	99.95695	103.54966
3350.00000	102.48821	101.09476	102.48821
3400.00000	101.63583	107.73086	101.63583
3450.00000	101.39831	115.34956	101.39831
3500.00000	101.88015	121.24587	101.88015
3550.00000	102.17182	123.47795	102.17182
3600.00000	102.25218	126.01552	102.25218
3650.00000	101.87772	129.76194	101.87772
3700.00000	101.62522	140.14201	101.62522
3750.00000	102.62609	153.41035	102.62609
3800.00000	104.61469	161.81173	104.61469
3850.00000	106.67520	164.31407	106.67520
3900.00000	108.57350	163.62789	108.57350
3950.00000	110.24673	160.15473	110.24673
4000.00000	111.55043	155.57335	111.55043
4050.00000	112.56397	151.00285	112.56397
4100.00000	113.40331	147.32933	113.40331
4150.00000	114.35966	144.43009	114.35966
4200.00000	115.10600	141.79613	115.10600
4250.00000	116.05930	139.78740	116.05930
4300.00000	117.15385	137.57966	117.15385
4350.00000	118.34945	134.59068	118.34945
4400.00000	119.62411	131.00260	119.62411
4450.00000	120.96051	126.35282	120.96051
4500.00000	122.33594	120.53674	122.33594
4550.00000	123.71539	113.33055	123.71539
4600.00000	125.02607	104.84413	125.02607
4650.00000	126.32771	95.01171	126.32771
4700.00000	127.48244	83.20327	127.48244
4750.00000	128.39729	69.69683	128.39729
4800.00000	128.96966	54.78454	128.96966
4850.00000	129.09094	39.52467	129.09094
4900.00000	128.77748	24.78151	128.77748
4950.00000	128.07104	11.39645	128.07104
5000.00000	126.97741	 0.29270	126.97741
5050.00000	125.83152	-7.58907	125.83152
5100.00000	124.40676	-15.77727	124.40676
5150.00000	121.85805	-15.19527	121.85805
5200.00000	121.34033	 5.87397	121.34033
5250.00000	124.75403	 9.35633	124.75403
5300.00000	126.53488	-5.10504	126.53488
5350.00000	126.81743	-19.33596	126.81743
5400.00000	126.53745	-30.59406	126.53745
5450.00000	126.09438	-39.49859	126.09438
5500.00000	125.61282	-47.06372	125.61282
5550.00000	125.14054	-53.57879	125.14054
5600.00000	124.67600	-59.50491	124.67600
5650.00000	124.23845	-64.88655	124.23845
5700.00000	123.78910	-70.09100	123.78910
5750.00000	123.37440	-74.74903	123.37440
5800.00000	122.95422	-79.24488	122.95422
5850.00000	122.56875	-83.51806	122.56875
5900.00000	122.20839	-87.54192	122.20839
5950.00000	121.86902	-91.50853	121.86902
6000.00000	121.54307	-95.27995	121.54307
6050.00000	121.20891	-99.12212	121.20891
6100.00000	120.89347	-102.87949	120.89347
6150.00000	120.57475	-106.57810	120.57475
6200.00000	120.24521	-110.10683	120.24521
6250.00000	119.94532	-113.57629	119.94532
6300.00000	119.65289	-116.95109	119.65289
6350.00000	119.34923	-120.34875	119.34923
6400.00000	119.05102	-123.56756	119.05102
6450.00000	118.77235	-126.82214	118.77235
6500.00000	118.45946	-129.96082	118.45946
6550.00000	118.15117	-132.99025	118.15117
6600.00000	117.84477	-135.88516	117.84477
6650.00000	117.54833	-138.65131	117.54833
6700.00000	117.26199	-141.48445	117.26199
6750.00000	116.97801	-144.11091	116.97801
6800.00000	116.70575	-146.60749	116.70575
6850.00000	116.44748	-149.07933	116.44748
6900.00000	116.21161	-151.49956	116.21161
6950.00000	115.97821	-153.84687	115.97821
7000.00000	115.77691	-156.29428	115.77691
7050.00000	115.56000	-158.79597	115.56000
7100.00000	115.37387	-161.26963	115.37387
7150.00000	115.18259	-163.51113	115.18259
7200.00000	114.98394	-165.77345	114.98394
7250.00000	114.78725	-167.98099	114.78725
7300.00000	114.64973	-170.01215	114.64973
7350.00000	114.49819	-171.97849	114.49819
7400.00000	114.39568	-174.11659	114.39568
7450.00000	114.29569	-176.27146	114.29569
7500.00000	114.21960	-178.46741	114.21960
7550.00000	114.15977	-180.74322	114.15977
7600.00000	114.08907	-183.16864	114.08907
7650.00000	114.04641	-185.72543	114.04641
7700.00000	114.05449	-188.64721	114.05449
7750.00000	113.96255	-191.78208	113.96255
7800.00000	113.88746	-195.00513	113.88746
7850.00000	113.78485	-198.28747	113.78485
7900.00000	113.67726	-201.58287	113.67726
7950.00000	113.53109	-205.21694	113.53109
8000.00000	113.35823	-208.84559	113.35823
8050.00000	113.15317	-212.70733	113.15317
8100.00000	112.93560	-215.79926	112.93560
8150.00000	112.63686	-219.26250	112.63686
8200.00000	112.36739	-222.33074	112.36739
8250.00000	112.04872	-225.74191	112.04872
8300.00000	111.75566	-228.80728	111.75566
8350.00000	111.42554	-231.48026	111.42554
8400.00000	111.08707	-234.59561	111.08707
8450.00000	110.67261	-237.05624	110.67261
8500.00000	110.29802	-239.42859	110.29802
8550.00000	109.97149	-241.38683	109.97149
8600.00000	109.60274	-243.66725	109.60274
8650.00000	109.21301	-245.44484	109.21301
8700.00000	108.88425	-247.78157	108.88425
8750.00000	108.48789	-248.65721	108.48789
8800.00000	108.18183	-250.81159	108.18183
8850.00000	107.84434	-252.64976	107.84434
8900.00000	107.57370	-254.15242	107.57370
8950.00000	107.31001	-256.05133	107.31001
9000.00000	106.99998	-257.47761	106.99998
9050.00000	106.86140	-259.02624	106.86140
9100.00000	106.71103	-260.25278	106.71103
9150.00000	106.58877	-261.49726	106.58877
9200.00000	106.48575	-262.69387	106.48575
9250.00000	106.28071	-263.70570	106.28071
9300.00000	106.12382	-264.63743	106.12382
9350.00000	105.97106	-265.75022	105.97106
9400.00000	105.68798	-266.60285	105.68798
9450.00000	105.52281	-267.99049	105.52281
9500.00000	105.35898	-269.47807	105.35898
9550.00000	105.18449	-271.25848	105.18449
9600.00000	105.15091	-273.52051	105.15091
9650.00000	105.13115	-275.90744	105.13115
9700.00000	105.15456	-277.40142	105.15456
9750.00000	105.26257	-279.68791	105.26257
9800.00000	105.26405	-280.51415	105.26405
9850.00000	105.27115	-281.00677	105.27115
9900.00000	105.06215	-281.93604	105.06215
9950.00000	104.90197	-282.19595	104.90197
10000.00000	104.68692	-283.55918	104.68692
10050.00000	104.35829	-285.04539	104.35829
10100.00000	104.03803	-286.97523	104.03803
10150.00000	103.70885	-290.16978	103.70885
10200.00000	103.56056	-293.20245	103.56056
10250.00000	103.47967	-296.52544	103.47967
10300.00000	103.61411	-299.26784	103.61411
10350.00000	103.66573	-301.03291	103.66573
10400.00000	103.66884	-302.62095	103.66884
10450.00000	103.75315	-303.79462	103.75315
10500.00000	103.72976	-304.49764	103.72976
10550.00000	103.58400	-305.65996	103.58400
10600.00000	103.33576	-306.99744	103.33576
10650.00000	103.05622	-308.72012	103.05622
10700.00000	102.84699	-312.35135	102.84699
10750.00000	102.76074	-315.85702	102.76074
10800.00000	102.68794	-319.09981	102.68794
10850.00000	102.70444	-322.93028	102.70444
10900.00000	102.75754	-325.08989	102.75754
10950.00000	102.74107	-326.57237	102.74107
11000.00000	102.60446	-328.08051	102.60446
11050.00000	102.21479	-329.49258	102.21479
11100.00000	101.84219	-331.74989	101.84219
11150.00000	101.33825	-334.06467	101.33825
11200.00000	101.00261	-336.99401	101.00261
11250.00000	100.61605	-340.73638	100.61605
11300.00000	100.30532	-344.00234	100.30532
11350.00000	100.12176	-345.98856	100.12176
11400.00000	99.83522	-347.47577	99.83522
11450.00000	99.60318	-348.72257	99.60318
11500.00000	99.36467	-348.57419	99.36467
11550.00000	98.82395	-348.90373	98.82395
11600.00000	98.42382	-350.53470	98.42382
11650.00000	97.94087	-351.11637	97.94087
11700.00000	97.65032	-352.98492	97.65032
11750.00000	97.48444	-355.07166	97.48444
11800.00000	97.36895	-356.88052	97.36895
11850.00000	97.34613	-356.49287	97.34613
11900.00000	97.07497	-356.85459	97.07497
11950.00000	96.89314	-356.22335	96.89314
12000.00000	96.49819	-355.62695	96.49819
12050.00000	96.02026	-355.66060	96.02026
12100.00000	95.65222	-357.82693	95.65222
12150.00000	95.30939	-359.82145	95.30939
12200.00000	95.17306	-362.09114	95.17306
12250.00000	95.09819	-363.05916	95.09819
12300.00000	96.15024	-363.92764	96.15024
12350.00000	94.90866	-363.63436	94.90866
12400.00000	94.63939	-362.24751	94.63939
12450.00000	94.24373	-361.38714	94.24373
12500.00000	93.78799	-361.64090	93.78799
12550.00000	93.38395	-362.22419	93.38395
12600.00000	93.00545	-363.64799	93.00545
12650.00000	93.03261	-364.06612	93.03261
12700.00000	92.89125	-363.85482	92.89125
12750.00000	92.80749	-363.10644	92.80749
12800.00000	92.61116	-360.58553	92.61116
12850.00000	92.09839	-358.89454	92.09839
12900.00000	91.84587	-358.32619	91.84587
12950.00000	91.60557	-358.74588	91.60557
13000.00000	91.42082	-360.35915	91.42082
13050.00000	91.61491	-359.90797	91.61491
13100.00000	91.68194	-359.94485	91.68194
13150.00000	91.87876	-359.21222	91.87876
13200.00000	91.87804	-355.51915	91.87804
13250.00000	91.70318	-353.46056	91.70318
13300.00000	91.35587	-349.54803	91.35587
13350.00000	90.97566	-349.75140	90.97566
13400.00000	90.99541	-350.91821	90.99541
13450.00000	90.87721	-350.92114	90.87721
13500.00000	91.19466	-349.87090	91.19466
13550.00000	91.25229	-349.57644	91.25229
13600.00000	91.61153	-346.82210	91.61153
13650.00000	91.73900	-344.54428	91.73900
13700.00000	91.67959	-342.67418	91.67959
13750.00000	91.62905	-340.95207	91.62905
13800.00000	91.55280	-341.60733	91.55280
13850.00000	91.64478	-342.59618	91.64478
13900.00000	91.71051	-342.30239	91.71051
13950.00000	92.05017	-341.44841	92.05017
14000.00000	92.56309	-339.21351	92.56309
14050.00000	92.82283	-338.03851	92.82283
14100.00000	92.84167	-336.32969	92.84167
14150.00000	93.11543	-336.12717	93.11543
14200.00000	93.49020	-335.99806	93.49020
14250.00000	94.18814	-333.80427	94.18814
14300.00000	94.59962	-333.72408	94.59962
14350.00000	94.95623	-330.72077	94.95623
14400.00000	94.90843	-329.81281	94.90843
14450.00000	95.08774	-328.44384	95.08774
14500.00000	95.30974	-329.77846	95.30974
14550.00000	95.88080	-330.05074	95.88080
14600.00000	96.35236	-331.90463	96.35236
14650.00000	97.25310	-330.54640	97.25310
14700.00000	97.75306	-334.07963	97.75306
14750.00000	98.24669	-333.23781	98.24669
14800.00000	98.59669	-333.25596	98.59669
14850.00000	99.18576	-333.87529	99.18576
14900.00000	99.71596	-335.67047	99.71596
14950.00000	100.20992	-337.35025	100.20992
15000.00000	100.67591	-339.20625	100.67591
15050.00000	100.98565	-340.25635	100.98565
15100.00000	101.50922	-342.12474	101.50922
15150.00000	102.16222	-344.86642	102.16222
15200.00000	102.54656	-345.17082	102.54656
15250.00000	102.82045	-347.38653	102.82045
15300.00000	103.35922	-349.87711	103.35922
15350.00000	103.71161	-353.43460	103.71161
15400.00000	104.06374	-355.06545	104.06374
15450.00000	104.46751	-357.80914	104.46751
15500.00000	104.91191	-360.12474	104.91191
15550.00000	105.25033	-363.18096	105.25033
15600.00000	105.54286	-367.05858	105.54286
15650.00000	106.08928	-368.62524	106.08928
15700.00000	106.32195	-372.70532	106.32195
15750.00000	106.76764	-374.80829	106.76764
15800.00000	107.03611	-376.61815	107.03611
15850.00000	107.22944	-379.58393	107.22944
15900.00000	107.44086	-383.41302	107.44086
15950.00000	107.80846	-386.62432	107.80846
16000.00000	108.07069	-389.35875	108.07069
16050.00000	108.35001	-392.07445	108.35001
16100.00000	108.40628	-395.88086	108.40628
16150.00000	108.62186	-399.23622	108.62186
16200.00000	108.90737	-402.99058	108.90737
16250.00000	109.13443	-405.38774	109.13443
16300.00000	109.45269	-408.40813	109.45269
16350.00000	109.55405	-411.52327	109.55405
16400.00000	109.70212	-414.48010	109.70212
16450.00000	109.86323	-417.43583	109.86323
16500.00000	109.97929	-420.47863	109.97929
16550.00000	110.15160	-424.14001	110.15160
16600.00000	110.31768	-426.95443	110.31768
16650.00000	110.42770	-429.78842	110.42770
16700.00000	110.61375	-432.16227	110.61375
16750.00000	110.61192	-435.21024	110.61192
16800.00000	110.74292	-438.25304	110.74292
16850.00000	110.94198	-441.15770	110.94198
16900.00000	111.12846	-444.11171	111.12846
16950.00000	111.26616	-446.57286	111.26616
17000.00000	111.25708	-449.30310	111.25708
17050.00000	111.43041	-451.46062	111.43041
17100.00000	111.49203	-453.52885	111.49203
17150.00000	111.81326	-457.01515	111.81326
17200.00000	111.96092	-459.51335	111.96092
17250.00000	112.03933	-462.61846	112.03933
17300.00000	112.25265	-465.38189	112.25265
17350.00000	112.27804	-468.14752	112.27804
17400.00000	112.52626	-471.03522	112.52626
17450.00000	112.59556	-474.44794	112.59556
17500.00000	112.75906	-477.35399	112.75906
17550.00000	112.90746	-480.44312	112.90746
17600.00000	113.13496	-483.09569	113.13496
17650.00000	113.24006	-487.02987	113.24006
17700.00000	113.30579	-490.25651	113.30579
17750.00000	113.54151	-492.85300	113.54151
17800.00000	113.53854	-496.81690	113.53854
17850.00000	113.67461	-499.59722	113.67461
17900.00000	113.72741	-502.91546	113.72741
17950.00000	113.87913	-506.55043	113.87913
18000.00000	113.92942	-510.46568	113.92942
18050.00000	114.13675	-513.28192	114.13675
18100.00000	114.12343	-516.98599	114.12343
18150.00000	114.15224	-519.71550	114.15224
18200.00000	114.13389	-523.69065	114.13389
18250.00000	114.26351	-526.33263	114.26351
18300.00000	114.35775	-529.67261	114.35775
18350.00000	114.38095	-532.82556	114.38095
18400.00000	114.35884	-536.47025	114.35884
18450.00000	114.35166	-540.91069	114.35166
18500.00000	114.40065	-544.08205	114.40065
18550.00000	114.40493	-546.88069	114.40493
18600.00000	114.49970	-550.73124	114.49970
18650.00000	114.37756	-553.69835	114.37756
18700.00000	114.37571	-557.58602	114.37571
18750.00000	114.42383	-560.91773	114.42383
18800.00000	114.52717	-563.66008	114.52717
18850.00000	114.38484	-567.41544	114.38484
18900.00000	114.36091	-570.63872	114.36091
18950.00000	114.35565	-574.55172	114.35565
19000.00000	114.17829	-577.61947	114.17829
19050.00000	114.27332	-581.11686	114.27332
19100.00000	114.17219	-584.33952	114.17219
19150.00000	114.23898	-587.52654	114.23898
19200.00000	114.13629	-590.67146	114.13629
19250.00000	114.04746	-595.11757	114.04746
19300.00000	113.91181	-597.78333	113.91181
19350.00000	113.83891	-601.19298	113.83891
19400.00000	113.70593	-604.35478	113.70593
19450.00000	113.69305	-607.08812	113.69305
19500.00000	113.50462	-611.14274	113.50462
19550.00000	113.41061	-614.30732	113.41061
19600.00000	113.36633	-618.01405	113.36633
19650.00000	113.17591	-620.68474	113.17591
19700.00000	112.93596	-623.95815	112.93596
19750.00000	112.78530	-626.48342	112.78530
19800.00000	112.72847	-630.42888	112.72847
19850.00000	112.60556	-633.06946	112.60556
19900.00000	112.38621	-636.77820	112.38621
19950.00000	112.19095	-639.62893	112.19095
20000.00000	112.02432	-642.51975	112.02432
20050.00000	111.85850	-645.35254	111.85850
20100.00000	111.58046	-648.23443	111.58046
20150.00000	111.45417	-650.11338	111.45417
20200.00000	111.20839	-653.49701	111.20839
20250.00000	110.95163	-656.02006	110.95163
20300.00000	110.66675	-658.56118	110.66675
20350.00000	110.52566	-661.12848	110.52566
20400.00000	110.23011	-662.58674	110.23011
20450.00000	109.90731	-664.89873	109.90731
20500.00000	109.74099	-667.27249	109.74099
20550.00000	109.28115	-668.38372	109.28115
20600.00000	109.13530	-669.90195	109.13530
20650.00000	108.90974	-671.41958	108.90974
20700.00000	108.61434	-672.66117	108.61434
20750.00000	108.45580	-673.76110	108.45580
20800.00000	108.21573	-674.41292	108.21573
20850.00000	108.09583	-675.36783	108.09583
20900.00000	107.87132	-675.94299	107.87132
20950.00000	107.73498	-676.04584	107.73498
21000.00000	107.63560	-676.36798	107.63560
21050.00000	107.72147	-676.39654	107.72147
21100.00000	107.67688	-676.39079	107.67688
21150.00000	107.77623	-677.08000	107.77623
21200.00000	107.88022	-677.21134	107.88022
21250.00000	107.98003	-679.10652	107.98003
21300.00000	108.16740	-679.45283	108.16740
21350.00000	108.27439	-680.39700	108.27439
21400.00000	108.40231	-682.14633	108.40231
21450.00000	108.54629	-683.78649	108.54629
21500.00000	108.69744	-685.91942	108.69744
21550.00000	108.72400	-687.39818	108.72400
21600.00000	108.90027	-689.55694	108.90027
21650.00000	108.95339	-691.86350	108.95339
21700.00000	109.02329	-693.62234	109.02329
21750.00000	109.11646	-695.74948	109.11646
21800.00000	109.17208	-697.93786	109.17208
21850.00000	109.14579	-699.96550	109.14579
21900.00000	109.20866	-702.14120	109.20866
21950.00000	109.23441	-704.14607	109.23441
22000.00000	109.31243	-706.14745	109.31243
22050.00000	109.31414	-707.82468	109.31414
22100.00000	109.29210	-710.08745	109.29210
22150.00000	109.31503	-712.00970	109.31503
22200.00000	109.38949	-714.03942	109.38949
22250.00000	109.34073	-715.42622	109.34073
22300.00000	109.23188	-717.55344	109.23188
22350.00000	109.35329	-719.56068	109.35329
22400.00000	109.37178	-721.67536	109.37178
22450.00000	109.32791	-723.20483	109.32791
22500.00000	109.25250	-724.08669	109.25250
22550.00000	109.24787	-726.07824	109.24787
22600.00000	109.24739	-728.60814	109.24739
22650.00000	109.28391	-729.96147	109.28391
