---ACOUSTIC CALIBRATION---
Filename: C:\Data\AZH DATA\AZH51\RightPrimary.calib
Date: 8/27/2019 11:14:12 AM
Format: 4
Probe Tube Correction File: C:\Data\Probe Tube Calibrations\50_ProbeTube.calib
Experiment VIs: 850
EPL_CFTS.exe V12.0.1 (2012)
DAQmx V9.6

Attenuation (dB): 40.000000
Min Freq (Hz): 50.000000
Max Freq (Hz): 49950.000000
Freq Step (Hz): 50.000000
Sample Rate (Hz): 100000.000000
[Smoothing]
Method=None
MA.Iterations=0
MA.Length=0
Loess.Length=0
Loess.Type=Linear
Loess.Robust=FALSE


Freq(Hz)	Mag(dB)	Phase(deg)	Unsmoothed(dB)

50.00000	103.29266	347.94549	103.29266
100.00000	83.66668	262.10371	83.66668
150.00000	80.72426	148.05486	80.72426
200.00000	78.80127	101.03889	78.80127
250.00000	90.99536	90.04045	90.99536
300.00000	89.62025	11.64550	89.62025
350.00000	87.51242	20.02550	87.51242
400.00000	89.19998	 4.15516	89.19998
450.00000	90.10433	-7.79932	90.10433
500.00000	90.07918	 2.23610	90.07918
550.00000	95.31282	-3.89033	95.31282
600.00000	97.68617	-12.32648	97.68617
650.00000	99.75115	-20.27572	99.75115
700.00000	101.81722	-38.66147	101.81722
750.00000	103.87496	-54.47273	103.87496
800.00000	104.37793	-78.21196	104.37793
850.00000	103.71322	-93.48366	103.71322
900.00000	101.91002	-109.55682	101.91002
950.00000	100.00797	-108.55280	100.00797
1000.00000	98.59972	-104.71170	98.59972
1050.00000	97.10474	-86.53848	97.10474
1100.00000	99.35816	-67.99233	99.35816
1150.00000	102.14959	-64.60114	102.14959
1200.00000	104.93313	-66.77081	104.93313
1250.00000	106.43817	-74.00914	106.43817
1300.00000	108.14943	-80.04254	108.14943
1350.00000	109.43486	-89.08782	109.43486
1400.00000	110.42584	-96.12161	110.42584
1450.00000	111.42661	-102.94327	111.42661
1500.00000	112.52474	-109.78105	112.52474
1550.00000	113.24168	-119.11129	113.24168
1600.00000	114.65083	-128.50875	114.65083
1650.00000	115.61714	-145.52083	115.61714
1700.00000	114.36655	-155.51416	114.36655
1750.00000	114.09054	-160.80295	114.09054
1800.00000	113.82746	-164.64727	113.82746
1850.00000	114.16013	-165.12680	114.16013
1900.00000	115.44596	-170.94214	115.44596
1950.00000	115.92259	-185.32448	115.92259
2000.00000	114.73733	-196.75001	114.73733
2050.00000	113.56912	-190.52826	113.56912
2100.00000	115.46849	-192.32200	115.46849
2150.00000	115.98171	-203.92103	115.98171
2200.00000	115.80103	-213.87437	115.80103
2250.00000	115.15871	-220.74996	115.15871
2300.00000	115.18323	-226.30577	115.18323
2350.00000	114.84553	-232.57162	114.84553
2400.00000	114.53792	-237.88829	114.53792
2450.00000	114.15033	-244.26052	114.15033
2500.00000	113.67806	-248.90948	113.67806
2550.00000	113.14318	-254.11688	113.14318
2600.00000	112.50085	-257.97309	112.50085
2650.00000	111.88891	-261.59283	111.88891
2700.00000	111.20535	-264.71116	111.20535
2750.00000	110.40652	-267.63847	110.40652
2800.00000	109.51242	-269.39349	109.51242
2850.00000	108.53879	-269.43542	108.53879
2900.00000	107.51541	-268.44765	107.51541
2950.00000	106.40697	-264.98286	106.40697
3000.00000	105.29837	-258.52668	105.29837
3050.00000	104.40956	-247.18801	104.40956
3100.00000	104.65904	-231.58206	104.65904
3150.00000	106.01629	-219.68533	106.01629
3200.00000	107.82449	-212.22023	107.82449
3250.00000	109.64508	-209.31247	109.64508
3300.00000	111.35273	-208.53400	111.35273
3350.00000	113.00992	-209.06496	113.00992
3400.00000	114.74906	-210.08973	114.74906
3450.00000	116.53396	-214.17524	116.53396
3500.00000	118.27002	-220.94416	118.27002
3550.00000	119.55831	-229.74304	119.55831
3600.00000	120.67937	-238.04455	120.67937
3650.00000	121.51935	-247.49311	121.51935
3700.00000	122.17462	-256.67969	122.17462
3750.00000	122.64195	-265.73408	122.64195
3800.00000	122.91652	-274.37540	122.91652
3850.00000	123.05157	-281.67732	123.05157
3900.00000	123.26729	-287.62716	123.26729
3950.00000	123.62997	-293.69201	123.62997
4000.00000	124.02036	-300.22152	124.02036
4050.00000	124.41997	-306.99079	124.41997
4100.00000	124.81541	-314.23368	124.81541
4150.00000	125.33546	-322.25101	125.33546
4200.00000	125.50987	-331.30589	125.50987
4250.00000	125.64461	-340.40971	125.64461
4300.00000	125.63243	-349.62118	125.63243
4350.00000	125.46650	-358.63220	125.46650
4400.00000	125.19434	-366.95283	125.19434
4450.00000	124.87716	-374.80503	124.87716
4500.00000	124.54061	-382.12372	124.54061
4550.00000	124.20034	-389.50745	124.20034
4600.00000	123.79887	-396.67658	123.79887
4650.00000	123.40757	-403.76529	123.40757
4700.00000	122.91100	-411.37022	122.91100
4750.00000	122.25324	-418.96205	122.25324
4800.00000	121.39627	-426.11702	121.39627
4850.00000	120.34350	-431.82846	120.34350
4900.00000	119.19356	-435.61534	119.19356
4950.00000	118.13762	-437.35856	118.13762
5000.00000	117.20974	-437.71156	117.20974
5050.00000	116.45194	-437.58816	116.45194
5100.00000	115.71665	-434.16987	115.71665
5150.00000	116.05427	-431.57135	116.05427
5200.00000	116.33572	-430.78900	116.33572
5250.00000	116.91417	-436.55674	116.91417
5300.00000	116.45536	-442.56758	116.45536
5350.00000	115.87114	-444.95125	115.87114
5400.00000	115.47215	-446.13066	115.47215
5450.00000	115.21790	-446.97356	115.21790
5500.00000	115.02867	-448.06863	115.02867
5550.00000	114.90895	-449.13597	114.90895
5600.00000	114.83693	-450.13043	114.83693
5650.00000	114.84803	-451.09520	114.84803
5700.00000	114.93596	-452.63623	114.93596
5750.00000	115.07981	-454.52101	115.07981
5800.00000	115.18599	-457.29872	115.18599
5850.00000	115.27636	-460.55185	115.27636
5900.00000	115.30628	-463.74572	115.30628
5950.00000	115.28343	-467.04749	115.28343
6000.00000	115.21847	-470.07799	115.21847
6050.00000	115.15591	-473.20834	115.15591
6100.00000	115.07238	-476.15321	115.07238
6150.00000	114.99796	-479.08789	114.99796
6200.00000	114.89784	-481.89225	114.89784
6250.00000	114.81995	-484.65842	114.81995
6300.00000	114.75206	-487.48214	114.75206
6350.00000	114.66159	-490.29756	114.66159
6400.00000	114.58448	-493.03705	114.58448
6450.00000	114.53985	-495.79465	114.53985
6500.00000	114.44612	-498.73597	114.44612
6550.00000	114.37536	-501.51583	114.37536
6600.00000	114.31111	-504.35720	114.31111
6650.00000	114.26399	-507.07617	114.26399
6700.00000	114.23076	-510.05464	114.23076
6750.00000	114.21439	-512.99611	114.21439
6800.00000	114.16825	-516.03390	114.16825
6850.00000	114.14957	-519.19948	114.14957
6900.00000	114.12341	-522.22672	114.12341
6950.00000	114.09157	-525.36471	114.09157
7000.00000	114.08165	-528.66777	114.08165
7050.00000	114.03781	-532.20555	114.03781
7100.00000	114.00176	-535.73156	114.00176
7150.00000	113.94876	-539.35419	113.94876
7200.00000	113.89227	-543.20930	113.89227
7250.00000	113.78209	-547.12660	113.78209
7300.00000	113.70683	-551.14769	113.70683
7350.00000	113.56663	-555.07038	113.56663
7400.00000	113.42412	-559.28132	113.42412
7450.00000	113.24105	-563.53618	113.24105
7500.00000	113.03067	-567.74871	113.03067
7550.00000	112.77587	-571.88164	112.77587
7600.00000	112.48679	-575.93243	112.48679
7650.00000	112.18067	-579.97272	112.18067
7700.00000	111.88332	-583.87585	111.88332
7750.00000	111.48544	-587.74092	111.48544
7800.00000	111.07160	-591.36189	111.07160
7850.00000	110.67534	-594.93926	110.67534
7900.00000	110.28211	-598.10147	110.28211
7950.00000	109.88818	-601.20678	109.88818
8000.00000	109.48883	-604.22808	109.48883
8050.00000	109.10042	-607.16690	109.10042
8100.00000	108.74438	-609.11557	108.74438
8150.00000	108.31064	-611.19005	108.31064
8200.00000	107.92806	-612.78779	107.92806
8250.00000	107.49912	-614.66855	107.49912
8300.00000	107.10746	-615.92489	107.10746
8350.00000	106.68156	-617.06014	106.68156
8400.00000	106.22014	-618.82898	106.22014
8450.00000	105.71690	-620.31870	105.71690
8500.00000	105.26083	-621.99877	105.26083
8550.00000	104.87310	-623.66813	104.87310
8600.00000	104.48050	-626.04794	104.48050
8650.00000	104.11994	-627.82227	104.11994
8700.00000	103.86321	-630.33429	103.86321
8750.00000	103.61761	-631.17198	103.61761
8800.00000	103.46155	-632.55804	103.46155
8850.00000	103.26024	-633.46583	103.26024
8900.00000	103.10318	-633.69046	103.10318
8950.00000	102.94861	-634.29293	102.94861
9000.00000	102.63729	-634.44977	102.63729
9050.00000	102.34623	-635.03615	102.34623
9100.00000	101.99805	-635.49717	101.99805
9150.00000	101.62459	-636.30624	101.62459
9200.00000	101.32527	-637.68723	101.32527
9250.00000	100.96829	-639.20263	100.96829
9300.00000	100.77840	-641.14550	100.77840
9350.00000	100.70406	-643.02285	100.70406
9400.00000	100.55061	-644.14562	100.55061
9450.00000	100.57173	-644.66528	100.57173
9500.00000	100.71689	-644.26374	100.71689
9550.00000	100.87975	-644.09917	100.87975
9600.00000	100.97449	-644.61220	100.97449
9650.00000	100.89326	-644.80995	100.89326
9700.00000	100.73450	-644.66464	100.73450
9750.00000	100.62273	-645.87518	100.62273
9800.00000	100.37561	-646.72379	100.37561
9850.00000	100.22070	-647.86828	100.22070
9900.00000	99.98243	-649.92239	99.98243
9950.00000	99.92533	-651.37958	99.92533
10000.00000	99.99389	-653.72796	99.99389
10050.00000	100.02665	-655.15276	100.02665
10100.00000	100.09700	-656.19578	100.09700
10150.00000	100.08629	-657.63481	100.08629
10200.00000	100.08749	-658.49224	100.08749
10250.00000	99.95938	-659.90304	99.95938
10300.00000	99.96385	-661.22624	99.96385
10350.00000	99.81400	-662.84978	99.81400
10400.00000	99.65427	-665.31169	99.65427
10450.00000	99.67332	-668.20416	99.67332
10500.00000	99.71918	-670.77166	99.71918
10550.00000	99.78492	-673.49776	99.78492
10600.00000	99.80787	-675.69352	99.80787
10650.00000	99.82586	-677.50863	99.82586
10700.00000	99.82989	-680.22244	99.82989
10750.00000	99.81454	-682.21610	99.81454
10800.00000	99.63601	-684.15730	99.63601
10850.00000	99.47819	-687.31723	99.47819
10900.00000	99.30906	-689.89059	99.30906
10950.00000	99.16877	-692.38763	99.16877
11000.00000	98.98943	-695.20127	98.98943
11050.00000	98.70656	-697.78496	98.70656
11100.00000	98.50260	-700.60964	98.50260
11150.00000	98.19334	-702.80971	98.19334
11200.00000	98.04259	-704.77181	98.04259
11250.00000	97.66823	-707.07147	97.66823
11300.00000	97.27086	-709.21977	97.27086
11350.00000	96.88932	-710.94775	96.88932
11400.00000	96.47136	-712.71731	96.47136
11450.00000	96.15314	-714.97250	96.15314
11500.00000	95.92442	-715.87183	95.92442
11550.00000	95.53478	-716.80888	95.53478
11600.00000	95.32386	-718.50421	95.32386
11650.00000	95.02752	-718.33273	95.02752
11700.00000	94.71282	-718.76805	94.71282
11750.00000	94.51488	-719.61046	94.51488
11800.00000	94.28030	-720.43026	94.28030
11850.00000	94.15364	-720.62884	94.15364
11900.00000	93.76011	-721.57749	93.76011
11950.00000	93.65302	-721.21037	93.65302
12000.00000	93.38959	-721.32302	93.38959
12050.00000	93.11823	-721.40032	93.11823
12100.00000	92.93421	-722.79176	92.93421
12150.00000	92.69034	-723.68371	92.69034
12200.00000	92.57649	-724.85584	92.57649
12250.00000	92.43429	-724.57784	92.43429
12300.00000	93.41630	-725.64357	93.41630
12350.00000	92.22455	-726.03969	92.22455
12400.00000	92.11929	-725.53145	92.11929
12450.00000	91.97411	-724.45407	91.97411
12500.00000	91.79009	-725.65930	91.79009
12550.00000	91.56747	-725.79875	91.56747
12600.00000	91.21322	-727.11335	91.21322
12650.00000	91.23375	-728.08833	91.23375
12700.00000	91.12366	-728.68207	91.12366
12750.00000	90.99010	-729.10355	90.99010
12800.00000	90.75742	-728.39984	90.75742
12850.00000	90.30393	-727.61162	90.30393
12900.00000	90.18422	-727.79645	90.18422
12950.00000	90.08119	-728.55625	90.08119
13000.00000	89.83938	-729.13035	89.83938
13050.00000	89.71538	-728.00173	89.71538
13100.00000	89.60622	-728.27700	89.60622
13150.00000	89.60810	-728.39533	89.60810
13200.00000	89.47077	-725.45876	89.47077
13250.00000	89.41475	-724.77321	89.41475
13300.00000	89.27856	-721.51972	89.27856
13350.00000	89.24910	-721.57238	89.24910
13400.00000	89.25000	-720.82004	89.25000
13450.00000	89.02975	-719.61623	89.02975
13500.00000	89.26591	-716.82581	89.26591
13550.00000	89.18043	-717.60651	89.18043
13600.00000	89.39923	-715.87748	89.39923
13650.00000	89.51282	-714.19551	89.51282
13700.00000	89.56810	-713.15692	89.56810
13750.00000	89.46097	-711.83542	89.46097
13800.00000	89.36085	-712.75326	89.36085
13850.00000	89.54087	-713.57450	89.54087
13900.00000	89.74012	-712.97956	89.74012
13950.00000	90.14672	-711.70027	90.14672
14000.00000	90.68650	-708.94494	90.68650
14050.00000	90.97869	-707.32647	90.97869
14100.00000	91.00535	-705.84583	91.00535
14150.00000	91.27845	-705.50108	91.27845
14200.00000	91.52141	-705.43338	91.52141
14250.00000	92.22008	-704.48989	92.22008
14300.00000	92.62712	-704.91269	92.62712
14350.00000	93.01332	-702.85309	93.01332
14400.00000	93.04044	-702.36783	93.04044
14450.00000	93.41443	-701.21961	93.41443
14500.00000	93.70103	-701.79617	93.70103
14550.00000	94.21185	-701.84983	94.21185
14600.00000	94.51682	-703.46261	94.51682
14650.00000	95.22085	-702.11637	95.22085
14700.00000	95.72567	-706.59291	95.72567
14750.00000	96.18432	-706.46468	96.18432
14800.00000	96.60962	-706.54867	96.60962
14850.00000	97.13091	-706.68560	97.13091
14900.00000	97.70871	-708.22997	97.70871
14950.00000	98.14974	-709.95691	98.14974
15000.00000	98.70786	-712.25309	98.70786
15050.00000	99.09105	-712.36750	99.09105
15100.00000	99.61554	-713.42841	99.61554
15150.00000	100.27424	-715.88695	100.27424
15200.00000	100.63803	-716.35572	100.63803
15250.00000	100.92616	-719.70105	100.92616
15300.00000	101.57350	-722.88353	101.57350
15350.00000	101.97014	-726.45810	101.97014
15400.00000	102.37659	-728.40923	102.37659
15450.00000	102.78176	-731.31032	102.78176
15500.00000	103.30906	-734.23755	103.30906
15550.00000	103.67265	-737.56052	103.67265
15600.00000	104.03116	-741.18868	104.03116
15650.00000	104.47846	-743.04889	104.47846
15700.00000	104.65049	-747.76030	104.65049
15750.00000	105.07777	-750.83539	105.07777
15800.00000	105.41239	-753.48314	105.41239
15850.00000	105.63655	-756.84343	105.63655
15900.00000	105.79413	-760.77013	105.79413
15950.00000	106.07697	-764.37077	106.07697
16000.00000	106.28300	-767.59876	106.28300
16050.00000	106.55137	-770.77984	106.55137
16100.00000	106.59811	-774.85534	106.59811
16150.00000	106.74538	-778.03200	106.74538
16200.00000	106.88490	-782.01947	106.88490
16250.00000	107.05283	-785.02701	107.05283
16300.00000	107.34048	-788.34307	107.34048
16350.00000	107.42036	-791.54285	107.42036
16400.00000	107.56104	-794.28760	107.56104
16450.00000	107.67329	-797.30630	107.67329
16500.00000	107.77079	-800.55319	107.77079
16550.00000	107.92547	-804.28896	107.92547
16600.00000	108.05438	-807.06692	108.05438
16650.00000	108.12488	-810.03731	108.12488
16700.00000	108.25376	-812.81958	108.25376
16750.00000	108.27133	-816.09929	108.27133
16800.00000	108.40509	-819.49889	108.40509
16850.00000	108.58916	-822.39347	108.58916
16900.00000	108.68945	-825.58286	108.68945
16950.00000	108.78946	-828.67923	108.78946
17000.00000	108.76529	-831.74214	108.76529
17050.00000	108.92177	-834.03579	108.92177
17100.00000	108.92543	-836.15105	108.92543
17150.00000	109.13851	-839.88502	109.13851
17200.00000	109.21837	-842.84464	109.21837
17250.00000	109.27331	-846.21427	109.27331
17300.00000	109.44253	-849.19256	109.44253
17350.00000	109.39969	-851.96357	109.39969
17400.00000	109.56199	-854.93118	109.56199
17450.00000	109.58615	-858.55416	109.58615
17500.00000	109.69287	-861.56555	109.69287
17550.00000	109.77701	-864.70603	109.77701
17600.00000	109.93713	-867.42534	109.93713
17650.00000	109.97763	-871.46157	109.97763
17700.00000	110.00806	-874.74879	110.00806
17750.00000	110.19228	-877.50926	110.19228
17800.00000	110.14613	-881.44906	110.14613
17850.00000	110.20561	-884.35487	110.20561
17900.00000	110.22295	-887.81144	110.22295
17950.00000	110.31756	-891.58289	110.31756
18000.00000	110.31592	-895.48226	110.31592
18050.00000	110.44695	-898.44799	110.44695
18100.00000	110.36397	-902.50004	110.36397
18150.00000	110.35558	-905.33668	110.35558
18200.00000	110.25208	-909.41646	110.25208
18250.00000	110.29991	-912.24863	110.29991
18300.00000	110.30274	-915.62820	110.30274
18350.00000	110.24382	-919.00186	110.24382
18400.00000	110.12967	-922.64755	110.12967
18450.00000	110.02347	-927.11319	110.02347
18500.00000	109.95429	-930.27816	109.95429
18550.00000	109.85906	-933.08024	109.85906
18600.00000	109.84921	-936.81881	109.84921
18650.00000	109.60939	-939.62650	109.60939
18700.00000	109.47302	-943.26570	109.47302
18750.00000	109.42332	-946.33019	109.42332
18800.00000	109.41264	-948.64017	109.41264
18850.00000	109.15342	-951.95622	109.15342
18900.00000	109.00043	-954.70706	109.00043
18950.00000	108.89997	-958.00784	108.89997
19000.00000	108.62510	-960.32640	108.62510
19050.00000	108.64228	-963.24823	108.64228
19100.00000	108.45436	-965.60839	108.45436
19150.00000	108.45724	-968.12304	108.45724
19200.00000	108.31372	-970.37453	108.31372
19250.00000	108.19120	-974.00324	108.19120
19300.00000	107.99908	-975.72501	107.99908
19350.00000	107.92264	-978.42166	107.92264
19400.00000	107.76929	-980.61574	107.76929
19450.00000	107.75372	-982.54712	107.75372
19500.00000	107.57490	-985.87396	107.57490
19550.00000	107.50265	-988.19722	107.50265
19600.00000	107.46589	-991.12314	107.46589
19650.00000	107.30803	-993.09577	107.30803
19700.00000	107.11805	-995.62665	107.11805
19750.00000	107.00914	-997.51316	107.00914
19800.00000	106.99010	-1000.78671	106.99010
19850.00000	106.91068	-1002.85804	106.91068
19900.00000	106.75568	-1006.00686	106.75568
19950.00000	106.63948	-1008.33981	106.63948
20000.00000	106.54084	-1010.82609	106.54084
20050.00000	106.45258	-1013.29770	106.45258
20100.00000	106.24338	-1015.65394	106.24338
20150.00000	106.19426	-1017.19635	106.19426
20200.00000	106.00733	-1020.38562	106.00733
20250.00000	105.83834	-1022.58683	105.83834
20300.00000	105.62139	-1025.08130	105.62139
20350.00000	105.55203	-1027.45648	105.55203
20400.00000	105.33177	-1028.86812	105.33177
20450.00000	105.10608	-1031.07004	105.10608
20500.00000	105.00124	-1033.39972	105.00124
20550.00000	104.60266	-1034.53834	104.60266
20600.00000	104.51301	-1036.10046	104.51301
20650.00000	104.33633	-1037.78373	104.33633
20700.00000	104.10917	-1039.17489	104.10917
20750.00000	104.00251	-1040.39929	104.00251
20800.00000	103.79445	-1041.14531	103.79445
20850.00000	103.71386	-1042.34514	103.71386
20900.00000	103.53095	-1043.18140	103.53095
20950.00000	103.40806	-1043.48733	103.40806
21000.00000	103.34524	-1044.00795	103.34524
21050.00000	103.43804	-1044.23472	103.43804
21100.00000	103.40975	-1044.57479	103.40975
21150.00000	103.52210	-1045.53761	103.52210
21200.00000	103.63235	-1045.94662	103.63235
21250.00000	103.72408	-1048.00622	103.72408
21300.00000	103.89248	-1048.61564	103.89248
21350.00000	103.99982	-1049.89902	103.99982
21400.00000	104.11211	-1051.75966	104.11211
21450.00000	104.23757	-1053.58089	104.23757
21500.00000	104.36671	-1055.86117	104.36671
21550.00000	104.35967	-1057.59130	104.35967
21600.00000	104.50205	-1059.89260	104.50205
21650.00000	104.52403	-1062.49082	104.52403
21700.00000	104.56073	-1064.32214	104.56073
21750.00000	104.61304	-1066.63553	104.61304
21800.00000	104.60200	-1068.83320	104.60200
21850.00000	104.53275	-1071.05771	104.53275
21900.00000	104.56703	-1073.09318	104.56703
21950.00000	104.54493	-1074.79826	104.54493
22000.00000	104.57370	-1076.80550	104.57370
22050.00000	104.51783	-1078.21264	104.51783
22100.00000	104.47008	-1080.56315	104.47008
22150.00000	104.44228	-1082.38980	104.44228
22200.00000	104.50173	-1084.11923	104.50173
22250.00000	104.43323	-1085.28471	104.43323
22300.00000	104.31413	-1087.25903	104.31413
22350.00000	104.43907	-1089.31305	104.43907
22400.00000	104.49082	-1091.06729	104.49082
22450.00000	104.39109	-1092.74091	104.39109
22500.00000	104.33697	-1093.33268	104.33697
22550.00000	104.34045	-1095.47808	104.34045
