---ACOUSTIC CALIBRATION---
Filename: C:\Data\AZH DATA\AZH52\RightSecondary.calib
Date: 8/27/2019 6:36:30 PM
Format: 4
Probe Tube Correction File: C:\Data\Probe Tube Calibrations\50_ProbeTube.calib
Experiment VIs: 850
EPL_CFTS.exe V12.0.1 (2012)
DAQmx V9.6

Attenuation (dB): 40.000000
Min Freq (Hz): 50.000000
Max Freq (Hz): 49950.000000
Freq Step (Hz): 50.000000
Sample Rate (Hz): 100000.000000
[Smoothing]
Method=None
MA.Iterations=0
MA.Length=0
Loess.Length=0
Loess.Type=Linear
Loess.Robust=FALSE


Freq(Hz)	Mag(dB)	Phase(deg)	Unsmoothed(dB)

50.00000	104.93146	505.03507	104.93146
100.00000	84.01947	630.19654	84.01947
150.00000	74.52743	450.11047	74.52743
200.00000	75.81190	577.33276	75.81190
250.00000	89.59604	760.40022	89.59604
300.00000	88.31483	682.70056	88.31483
350.00000	83.86940	703.44795	83.86940
400.00000	86.68080	684.60273	86.68080
450.00000	84.41998	670.81301	84.41998
500.00000	87.24605	703.01805	87.24605
550.00000	87.84332	697.90551	87.84332
600.00000	91.67704	695.78905	91.67704
650.00000	92.79263	671.81615	92.79263
700.00000	91.76265	669.63160	91.76265
750.00000	94.48069	671.50796	94.48069
800.00000	98.83145	664.09420	98.83145
850.00000	101.37104	653.31775	101.37104
900.00000	103.12134	635.56425	103.12134
950.00000	104.37385	617.24086	104.37385
1000.00000	104.00678	599.20592	104.00678
1050.00000	103.59624	590.75279	103.59624
1100.00000	103.76706	579.21409	103.76706
1150.00000	103.04089	569.30092	103.04089
1200.00000	102.71341	566.68670	102.71341
1250.00000	102.62490	555.98521	102.62490
1300.00000	101.71292	550.57033	101.71292
1350.00000	100.96878	545.38120	100.96878
1400.00000	100.26749	545.19760	100.26749
1450.00000	100.49997	544.43209	100.49997
1500.00000	100.63539	543.45886	100.63539
1550.00000	100.70486	544.19923	100.70486
1600.00000	101.44394	539.30329	101.44394
1650.00000	102.25050	530.45904	102.25050
1700.00000	101.08423	525.60801	101.08423
1750.00000	101.07620	523.08497	101.07620
1800.00000	100.24915	520.83154	100.24915
1850.00000	100.02055	523.93796	100.02055
1900.00000	101.26867	525.83119	101.26867
1950.00000	102.06348	516.46262	102.06348
2000.00000	101.72858	508.54393	101.72858
2050.00000	101.01175	505.81944	101.01175
2100.00000	101.12597	503.21742	101.12597
2150.00000	100.68830	498.31335	100.68830
2200.00000	100.27763	494.74815	100.27763
2250.00000	99.41211	493.35246	99.41211
2300.00000	99.35086	495.54486	99.35086
2350.00000	99.07441	494.55331	99.07441
2400.00000	98.80714	495.18808	98.80714
2450.00000	98.82384	491.99686	98.82384
2500.00000	98.16585	493.68858	98.16585
2550.00000	97.69433	495.61174	97.69433
2600.00000	97.72054	504.39187	97.72054
2650.00000	98.73018	512.83118	98.73018
2700.00000	100.71593	512.79819	100.71593
2750.00000	102.38988	503.96402	102.38988
2800.00000	102.75525	493.94361	102.75525
2850.00000	102.62738	485.57936	102.62738
2900.00000	102.31248	479.23843	102.31248
2950.00000	101.68976	475.56617	101.68976
3000.00000	101.48729	471.49808	101.48729
3050.00000	101.12171	469.01586	101.12171
3100.00000	100.73258	466.71204	100.73258
3150.00000	100.27050	463.43797	100.27050
3200.00000	99.43332	461.42224	99.43332
3250.00000	98.79848	460.62490	98.79848
3300.00000	97.61224	460.81401	97.61224
3350.00000	96.47514	464.02902	96.47514
3400.00000	95.86389	475.46883	95.86389
3450.00000	96.01003	484.61000	96.01003
3500.00000	96.83765	490.76920	96.83765
3550.00000	97.44830	493.61211	97.44830
3600.00000	97.79933	494.78322	97.79933
3650.00000	97.75493	497.17625	97.75493
3700.00000	97.90061	505.29573	97.90061
3750.00000	98.58431	515.38840	98.58431
3800.00000	100.19443	524.31454	100.19443
3850.00000	102.24046	528.54831	102.24046
3900.00000	104.24760	527.64377	104.24760
3950.00000	105.93226	524.66123	105.93226
4000.00000	107.35045	520.38758	107.35045
4050.00000	108.40922	515.49549	108.40922
4100.00000	109.37299	511.50526	109.37299
4150.00000	110.46313	507.90626	110.46313
4200.00000	111.15109	503.68941	111.15109
4250.00000	112.05974	499.92724	112.05974
4300.00000	112.85767	496.83491	112.85767
4350.00000	113.75754	493.77950	113.75754
4400.00000	114.79656	490.95120	114.79656
4450.00000	115.95936	487.83447	115.95936
4500.00000	117.26555	483.78936	117.26555
4550.00000	118.68488	478.14812	118.68488
4600.00000	120.06804	471.08322	120.06804
4650.00000	121.49348	462.37405	121.49348
4700.00000	122.82578	451.54466	122.82578
4750.00000	123.96403	438.57494	123.96403
4800.00000	124.76002	423.65128	124.76002
4850.00000	125.09338	407.93944	125.09338
4900.00000	124.91919	392.17730	124.91919
4950.00000	124.26738	377.84033	124.26738
5000.00000	123.18061	366.24684	123.18061
5050.00000	122.13059	358.33934	122.13059
5100.00000	120.80201	348.87581	120.80201
5150.00000	118.26713	348.26345	118.26713
5200.00000	117.76388	367.56910	117.76388
5250.00000	120.88369	368.67840	120.88369
5300.00000	122.20975	354.67588	122.20975
5350.00000	122.33441	342.08352	122.33441
5400.00000	122.03013	331.88842	122.03013
5450.00000	121.60075	323.55778	121.60075
5500.00000	121.12622	316.23227	121.12622
5550.00000	120.65775	310.00927	120.65775
5600.00000	120.18652	304.21103	120.18652
5650.00000	119.74422	298.97322	119.74422
5700.00000	119.28613	293.77107	119.28613
5750.00000	118.85830	289.29849	118.85830
5800.00000	118.43096	284.92460	118.43096
5850.00000	118.02276	280.75101	118.02276
5900.00000	117.66474	276.74041	117.66474
5950.00000	117.29990	272.77045	117.29990
6000.00000	116.93849	269.06952	116.93849
6050.00000	116.54687	265.46870	116.54687
6100.00000	116.19599	261.99149	116.19599
6150.00000	115.87762	258.46406	115.87762
6200.00000	115.50320	255.12335	115.50320
6250.00000	115.17999	251.78099	115.17999
6300.00000	114.82540	248.74374	114.82540
6350.00000	114.52081	245.69360	114.52081
6400.00000	114.21740	242.79874	114.21740
6450.00000	113.88604	239.65248	113.88604
6500.00000	113.53447	236.67496	113.53447
6550.00000	113.18681	234.05743	113.18681
6600.00000	112.80503	231.49912	112.80503
6650.00000	112.53913	229.37997	112.53913
6700.00000	112.21162	226.94646	112.21162
6750.00000	111.90403	224.57760	111.90403
6800.00000	111.59469	222.69741	111.59469
6850.00000	111.34217	220.76677	111.34217
6900.00000	111.07892	218.96756	111.07892
6950.00000	110.77704	217.22246	110.77704
7000.00000	110.59887	215.18166	110.59887
7050.00000	110.34519	213.26913	110.34519
7100.00000	110.13110	211.27567	110.13110
7150.00000	109.91162	209.82516	109.91162
7200.00000	109.68818	208.36989	109.68818
7250.00000	109.45195	207.18024	109.45195
7300.00000	109.29355	205.72001	109.29355
7350.00000	109.13913	204.91234	109.13913
7400.00000	109.06718	203.86805	109.06718
7450.00000	108.99271	202.59499	108.99271
7500.00000	108.97946	201.50170	108.97946
7550.00000	108.96367	200.30302	108.96367
7600.00000	108.96087	198.81344	108.96087
7650.00000	109.00102	197.33308	109.00102
7700.00000	109.08669	195.78996	109.08669
7750.00000	109.09922	193.86222	109.09922
7800.00000	109.19374	192.06609	109.19374
7850.00000	109.35386	190.07539	109.35386
7900.00000	109.51690	187.67687	109.51690
7950.00000	109.56725	184.51990	109.56725
8000.00000	109.64860	181.55628	109.64860
8050.00000	109.69063	178.09091	109.69063
8100.00000	109.77934	175.04164	109.77934
8150.00000	109.68344	171.69054	109.68344
8200.00000	109.66432	168.59017	109.66432
8250.00000	109.60374	164.69958	109.60374
8300.00000	109.49274	161.50476	109.49274
8350.00000	109.40548	158.37838	109.40548
8400.00000	109.28411	154.97451	109.28411
8450.00000	109.00151	151.75173	109.00151
8500.00000	108.81434	148.94349	108.81434
8550.00000	108.68737	146.73557	108.68737
8600.00000	108.51033	143.53452	108.51033
8650.00000	108.31130	141.00446	108.31130
8700.00000	108.14525	137.37543	108.14525
8750.00000	107.89448	135.39901	107.89448
8800.00000	107.71564	132.41263	107.71564
8850.00000	107.44957	129.61470	107.44957
8900.00000	107.25759	127.45325	107.25759
8950.00000	107.05801	124.87811	107.05801
9000.00000	106.85979	122.98208	106.85979
9050.00000	106.81461	120.36893	106.81461
9100.00000	106.70963	118.15736	106.70963
9150.00000	106.63637	115.91371	106.63637
9200.00000	106.60896	113.29836	106.60896
9250.00000	106.41360	111.04724	106.41360
9300.00000	106.27799	108.95780	106.27799
9350.00000	106.19943	107.01018	106.19943
9400.00000	106.01240	105.29633	106.01240
9450.00000	105.92805	103.38089	105.92805
9500.00000	105.86774	101.53673	105.86774
9550.00000	105.76942	99.04276	105.76942
9600.00000	105.76134	97.14717	105.76134
9650.00000	105.74863	94.56089	105.74863
9700.00000	105.75196	92.69293	105.75196
9750.00000	105.77096	89.62907	105.77096
9800.00000	105.66901	87.92565	105.66901
9850.00000	105.62054	86.51825	105.62054
9900.00000	105.39399	84.56164	105.39399
9950.00000	105.24546	82.94829	105.24546
10000.00000	105.09062	80.60598	105.09062
10050.00000	104.88536	78.07731	104.88536
10100.00000	104.66901	75.64977	104.66901
10150.00000	104.36715	72.31044	104.36715
10200.00000	104.24097	69.16016	104.24097
10250.00000	104.02649	65.97907	104.02649
10300.00000	104.04259	63.12931	104.04259
10350.00000	103.92409	60.83712	103.92409
10400.00000	103.79738	58.08396	103.79738
10450.00000	103.75210	55.30196	103.75210
10500.00000	103.67896	52.95411	103.67896
10550.00000	103.52856	50.26493	103.52856
10600.00000	103.35349	48.06650	103.35349
10650.00000	103.17094	46.01288	103.17094
10700.00000	103.06261	42.43428	103.06261
10750.00000	102.95405	39.45721	102.95405
10800.00000	102.77146	36.83204	102.77146
10850.00000	102.62969	33.33439	102.62969
10900.00000	102.45372	31.05713	102.45372
10950.00000	102.31340	29.26022	102.31340
11000.00000	102.12711	26.83635	102.12711
11050.00000	101.75155	24.30512	101.75155
11100.00000	101.44826	21.58628	101.44826
11150.00000	101.03892	19.25361	101.03892
11200.00000	100.77683	16.96318	100.77683
11250.00000	100.44217	14.47855	100.44217
11300.00000	100.10622	12.30016	100.10622
11350.00000	99.85913	10.45328	99.85913
11400.00000	99.47585	 8.75903	99.47585
11450.00000	99.17963	 6.80206	99.17963
11500.00000	99.01707	 6.13555	99.01707
11550.00000	98.63386	 4.78862	98.63386
11600.00000	98.44194	 2.22000	98.44194
11650.00000	98.14201	 1.91436	98.14201
11700.00000	97.95786	 0.29610	97.95786
11750.00000	97.78045	-1.01382	97.78045
11800.00000	97.61334	-2.80509	97.61334
11850.00000	97.52648	-3.12676	97.52648
11900.00000	97.17617	-4.96562	97.17617
11950.00000	97.04847	-5.67069	97.04847
12000.00000	96.83877	-7.04026	96.83877
12050.00000	96.39881	-8.99230	96.39881
12100.00000	96.37437	-11.28987	96.37437
12150.00000	96.20305	-13.71240	96.20305
12200.00000	96.08970	-15.41844	96.08970
12250.00000	95.92923	-16.32318	95.92923
12300.00000	96.89297	-19.16867	96.89297
12350.00000	95.35422	-20.41287	95.35422
12400.00000	95.02082	-21.18865	95.02082
12450.00000	94.54080	-22.99511	94.54080
12500.00000	94.05533	-25.73510	94.05533
12550.00000	93.59581	-26.68756	93.59581
12600.00000	93.21291	-27.55451	93.21291
12650.00000	93.11070	-28.53478	93.11070
12700.00000	92.66500	-29.34223	92.66500
12750.00000	92.31588	-30.25847	92.31588
12800.00000	91.90993	-29.49580	91.90993
12850.00000	91.47443	-29.60324	91.47443
12900.00000	91.13371	-30.71466	91.13371
12950.00000	90.94103	-31.88816	90.94103
13000.00000	90.93340	-32.33923	90.93340
13050.00000	90.53802	-30.65119	90.53802
13100.00000	90.46785	-29.81286	90.46785
13150.00000	90.44853	-29.57492	90.44853
13200.00000	90.18755	-24.53149	90.18755
13250.00000	89.95788	-25.29802	89.95788
13300.00000	89.34639	-24.19907	89.34639
13350.00000	89.29829	-24.48891	89.29829
13400.00000	89.48441	-25.05575	89.48441
13450.00000	89.34113	-24.86764	89.34113
13500.00000	89.48394	-21.65625	89.48394
13550.00000	89.25477	-20.55019	89.25477
13600.00000	89.32778	-18.03748	89.32778
13650.00000	89.06687	-17.06049	89.06687
13700.00000	89.05352	-15.88884	89.05352
13750.00000	88.82311	-15.52538	88.82311
13800.00000	88.71240	-17.18736	88.71240
13850.00000	88.92208	-17.02431	88.92208
13900.00000	89.09781	-17.34710	89.09781
13950.00000	89.44893	-15.23680	89.44893
14000.00000	89.84764	-15.22622	89.84764
14050.00000	90.06745	-13.61016	90.06745
14100.00000	90.21924	-12.77094	90.21924
14150.00000	90.35670	-12.87173	90.35670
14200.00000	90.38909	-12.73923	90.38909
14250.00000	90.71139	-11.01384	90.71139
14300.00000	91.02226	-12.78158	91.02226
14350.00000	91.11765	-12.33792	91.11765
14400.00000	91.19930	-12.21328	91.19930
14450.00000	91.16555	-11.28065	91.16555
14500.00000	91.37526	-13.62522	91.37526
14550.00000	91.79091	-15.07592	91.79091
14600.00000	91.87887	-15.50385	91.87887
14650.00000	92.43979	-14.10107	92.43979
14700.00000	92.70275	-17.44320	92.70275
14750.00000	93.01019	-18.12307	93.01019
14800.00000	93.01924	-17.76047	93.01924
14850.00000	93.24151	-18.59714	93.24151
14900.00000	93.48217	-21.47700	93.48217
14950.00000	93.75151	-23.14681	93.75151
15000.00000	94.09185	-24.27742	94.09185
15050.00000	94.26117	-24.36707	94.26117
15100.00000	94.42091	-25.31681	94.42091
15150.00000	94.81529	-26.68906	94.81529
15200.00000	94.86606	-26.17770	94.86606
15250.00000	94.90415	-28.25793	94.90415
15300.00000	95.22803	-30.39205	95.22803
15350.00000	95.35367	-32.88649	95.35367
15400.00000	95.36137	-33.84815	95.36137
15450.00000	95.48764	-35.18669	95.48764
15500.00000	95.67076	-36.92166	95.67076
15550.00000	95.84815	-38.83533	95.84815
15600.00000	95.90079	-40.78446	95.90079
15650.00000	96.26479	-40.18917	96.26479
15700.00000	96.23374	-43.16803	96.23374
15750.00000	96.59432	-43.05918	96.59432
15800.00000	96.62583	-43.24561	96.62583
15850.00000	96.66021	-43.66626	96.66021
15900.00000	96.57095	-45.28318	96.57095
15950.00000	96.85079	-46.31312	96.85079
16000.00000	97.11588	-47.49458	97.11588
16050.00000	97.36223	-47.82480	97.36223
16100.00000	97.34361	-49.45310	97.34361
16150.00000	97.61340	-50.39283	97.61340
16200.00000	98.01404	-51.21457	98.01404
16250.00000	98.25499	-52.01391	98.25499
16300.00000	98.68406	-53.14049	98.68406
16350.00000	98.96494	-54.01255	98.96494
16400.00000	99.22416	-54.90804	99.22416
16450.00000	99.48495	-56.39752	99.48495
16500.00000	99.76678	-58.50250	99.76678
16550.00000	100.23053	-61.33279	100.23053
16600.00000	100.64149	-62.43195	100.64149
16650.00000	100.85749	-64.52369	100.85749
16700.00000	101.14597	-66.34268	101.14597
16750.00000	101.31984	-69.41635	101.31984
16800.00000	101.67801	-71.97838	101.67801
16850.00000	101.99667	-74.23846	101.99667
16900.00000	102.35015	-76.30029	102.35015
16950.00000	102.57680	-78.94903	102.57680
17000.00000	102.60431	-81.73622	102.60431
17050.00000	102.88613	-84.19529	102.88613
17100.00000	103.09380	-85.96437	103.09380
17150.00000	103.46884	-89.27830	103.46884
17200.00000	103.64729	-91.59582	103.64729
17250.00000	103.75802	-94.56982	103.75802
17300.00000	103.98227	-97.41007	103.98227
17350.00000	104.09694	-99.64127	104.09694
17400.00000	104.33818	-102.38696	104.33818
17450.00000	104.44243	-105.52928	104.44243
17500.00000	104.61685	-108.04180	104.61685
17550.00000	104.77326	-110.92838	104.77326
17600.00000	105.00806	-113.25012	105.00806
17650.00000	105.13880	-116.66873	105.13880
17700.00000	105.24227	-119.48937	105.24227
17750.00000	105.50793	-121.63126	105.50793
17800.00000	105.52374	-124.91234	105.52374
17850.00000	105.64124	-127.02139	105.64124
17900.00000	105.74473	-129.75234	105.74473
17950.00000	105.90960	-132.97504	105.90960
18000.00000	106.03795	-136.21058	106.03795
18050.00000	106.28589	-138.34415	106.28589
18100.00000	106.35137	-141.50935	106.35137
18150.00000	106.41022	-143.28289	106.41022
18200.00000	106.45772	-146.50985	106.45772
18250.00000	106.65121	-148.62214	106.65121
18300.00000	106.85210	-151.47743	106.85210
18350.00000	106.96025	-154.17142	106.96025
18400.00000	107.03429	-157.03634	107.03429
18450.00000	107.08233	-160.99336	107.08233
18500.00000	107.23721	-163.64139	107.23721
18550.00000	107.35810	-166.13327	107.35810
18600.00000	107.57974	-169.60209	107.57974
18650.00000	107.57671	-172.05893	107.57671
18700.00000	107.70266	-175.48148	107.70266
18750.00000	107.86513	-178.43290	107.86513
18800.00000	108.07340	-181.02133	108.07340
18850.00000	108.06159	-184.58049	108.06159
18900.00000	108.16173	-187.72178	108.16173
18950.00000	108.29043	-191.46269	108.29043
19000.00000	108.25502	-194.20256	108.25502
19050.00000	108.44643	-197.79739	108.44643
19100.00000	108.45855	-201.11195	108.45855
19150.00000	108.64502	-204.38870	108.64502
19200.00000	108.68227	-207.50443	108.68227
19250.00000	108.68377	-212.02596	108.68377
19300.00000	108.64745	-214.90726	108.64745
19350.00000	108.68985	-218.38193	108.68985
19400.00000	108.64887	-221.79053	108.64887
19450.00000	108.73727	-224.74191	108.73727
19500.00000	108.62390	-228.91781	108.62390
19550.00000	108.64362	-232.29393	108.64362
19600.00000	108.68857	-236.24514	108.68857
19650.00000	108.57989	-239.15364	108.57989
19700.00000	108.43215	-242.59374	108.43215
19750.00000	108.35484	-245.43685	108.35484
19800.00000	108.40150	-249.77889	108.40150
19850.00000	108.34710	-252.57794	108.34710
19900.00000	108.20067	-256.68989	108.20067
19950.00000	108.08653	-259.82730	108.08653
20000.00000	107.99686	-263.19466	107.99686
20050.00000	107.92185	-266.45744	107.92185
20100.00000	107.70838	-269.73887	107.70838
20150.00000	107.62711	-272.06015	107.62711
20200.00000	107.43750	-275.81807	107.43750
20250.00000	107.23781	-278.81782	107.23781
20300.00000	106.99964	-281.84400	106.99964
20350.00000	106.90851	-284.87944	106.90851
20400.00000	106.63367	-286.74333	106.63367
20450.00000	106.34963	-289.53133	106.34963
20500.00000	106.21858	-292.36940	106.21858
20550.00000	105.78338	-293.96980	105.78338
20600.00000	105.65444	-295.85816	105.65444
20650.00000	105.43392	-297.77108	105.43392
20700.00000	105.16430	-299.46514	105.16430
20750.00000	105.01232	-300.87938	105.01232
20800.00000	104.77514	-301.82495	104.77514
20850.00000	104.67902	-303.12425	104.67902
20900.00000	104.47521	-304.00821	104.47521
20950.00000	104.33044	-304.32716	104.33044
21000.00000	104.24809	-304.96851	104.24809
21050.00000	104.34604	-305.31763	104.34604
21100.00000	104.32740	-305.60864	104.32740
21150.00000	104.43285	-306.45923	104.43285
21200.00000	104.55133	-307.04857	104.55133
21250.00000	104.68115	-309.23240	104.68115
21300.00000	104.89034	-309.84050	104.89034
21350.00000	105.01596	-310.99149	105.01596
21400.00000	105.14759	-313.13409	105.14759
21450.00000	105.32350	-315.07348	105.32350
21500.00000	105.49501	-317.54699	105.49501
21550.00000	105.52726	-319.47114	105.52726
21600.00000	105.72282	-321.95072	105.72282
21650.00000	105.77958	-324.60309	105.77958
21700.00000	105.84782	-326.81292	105.84782
21750.00000	105.94161	-329.46941	105.94161
21800.00000	106.00420	-332.06171	106.00420
21850.00000	105.97930	-334.40857	105.97930
21900.00000	106.02896	-337.17899	106.02896
21950.00000	106.04459	-339.41418	106.04459
22000.00000	106.13321	-341.83426	106.13321
22050.00000	106.10962	-343.87768	106.10962
22100.00000	106.04392	-346.43067	106.04392
22150.00000	106.03750	-348.57360	106.03750
22200.00000	106.11632	-351.21608	106.11632
22250.00000	106.05536	-352.76514	106.05536
22300.00000	105.91812	-355.02070	105.91812
22350.00000	106.01688	-357.65562	106.01688
22400.00000	106.01155	-359.97042	106.01155
22450.00000	105.96284	-361.79698	105.96284
22500.00000	105.84864	-362.77661	105.84864
22550.00000	105.86272	-365.11970	105.86272
22600.00000	105.81984	-367.79253	105.81984
22650.00000	105.82905	-369.80785	105.82905
22700.00000	105.79680	-371.25993	105.79680
22750.00000	105.74258	-371.52784	105.74258
22800.00000	105.77132	-375.45954	105.77132
22850.00000	105.86131	-377.89617	105.86131
22900.00000	105.86929	-378.16687	105.86929
22950.00000	105.87821	-380.08276	105.87821
23000.00000	105.87157	-381.16455	105.87157
23050.00000	105.76250	-383.85350	105.76250
