---ACOUSTIC CALIBRATION---
Filename: C:\Data\AZH DATA\AZH52\RightPrimary.calib
Date: 8/27/2019 6:36:03 PM
Format: 4
Probe Tube Correction File: C:\Data\Probe Tube Calibrations\50_ProbeTube.calib
Experiment VIs: 850
EPL_CFTS.exe V12.0.1 (2012)
DAQmx V9.6

Attenuation (dB): 40.000000
Min Freq (Hz): 50.000000
Max Freq (Hz): 49950.000000
Freq Step (Hz): 50.000000
Sample Rate (Hz): 100000.000000
[Smoothing]
Method=None
MA.Iterations=0
MA.Length=0
Loess.Length=0
Loess.Type=Linear
Loess.Robust=FALSE


Freq(Hz)	Mag(dB)	Phase(deg)	Unsmoothed(dB)

50.00000	109.50125	315.71962	109.50125
100.00000	81.65524	138.45314	81.65524
150.00000	70.71730	164.34098	70.71730
200.00000	79.80937	41.87301	79.80937
250.00000	85.23919	76.84545	85.23919
300.00000	85.38794	-20.91903	85.38794
350.00000	85.48842	15.46227	85.48842
400.00000	84.57615	33.00809	84.57615
450.00000	82.94563	17.01091	82.94563
500.00000	90.63599	30.28157	90.63599
550.00000	91.62842	25.41763	91.62842
600.00000	94.56092	13.07075	94.56092
650.00000	95.76026	-4.23555	95.76026
700.00000	98.17979	-17.40655	98.17979
750.00000	99.70954	-39.10681	99.70954
800.00000	99.96555	-61.17477	99.96555
850.00000	99.87816	-78.21059	99.87816
900.00000	97.93317	-95.62373	97.93317
950.00000	96.20694	-98.13012	96.20694
1000.00000	94.93378	-98.60748	94.93378
1050.00000	92.59218	-80.69842	92.59218
1100.00000	95.09830	-58.13681	95.09830
1150.00000	98.04419	-56.59140	98.04419
1200.00000	100.66590	-57.94678	100.66590
1250.00000	102.27743	-67.92579	102.27743
1300.00000	103.70513	-72.08699	103.70513
1350.00000	105.08298	-83.52645	105.08298
1400.00000	105.65619	-90.37671	105.65619
1450.00000	106.84402	-96.21375	106.84402
1500.00000	107.82643	-105.57237	107.82643
1550.00000	108.80000	-112.18581	108.80000
1600.00000	110.25869	-123.11638	110.25869
1650.00000	111.04688	-139.63889	111.04688
1700.00000	109.81497	-149.52374	109.81497
1750.00000	109.45200	-155.01947	109.45200
1800.00000	109.08824	-158.78254	109.08824
1850.00000	109.25594	-159.40546	109.25594
1900.00000	110.45467	-162.78732	110.45467
1950.00000	111.18297	-176.43952	111.18297
2000.00000	110.20349	-187.89575	110.20349
2050.00000	109.13760	-182.23284	109.13760
2100.00000	110.95214	-185.11324	110.95214
2150.00000	111.49317	-196.44435	111.49317
2200.00000	111.35252	-205.66950	111.35252
2250.00000	110.78708	-213.15445	110.78708
2300.00000	110.86760	-218.12206	110.86760
2350.00000	110.70166	-224.93268	110.70166
2400.00000	110.39146	-230.59291	110.39146
2450.00000	110.15587	-236.87516	110.15587
2500.00000	109.75540	-242.27594	109.75540
2550.00000	109.31662	-247.14073	109.31662
2600.00000	108.79627	-251.82322	108.79627
2650.00000	108.23816	-256.00469	108.23816
2700.00000	107.74214	-259.65028	107.74214
2750.00000	107.07323	-262.96323	107.07323
2800.00000	106.47143	-265.89444	106.47143
2850.00000	105.89984	-267.90671	105.89984
2900.00000	105.23440	-270.20924	105.23440
2950.00000	104.54587	-271.10346	104.54587
3000.00000	103.76267	-272.21241	103.76267
3050.00000	102.98495	-272.95977	102.98495
3100.00000	102.07941	-271.49657	102.07941
3150.00000	100.82526	-269.43676	100.82526
3200.00000	99.57478	-262.30485	99.57478
3250.00000	98.78338	-250.33468	98.78338
3300.00000	98.43606	-236.60606	98.43606
3350.00000	99.18665	-218.83764	99.18665
3400.00000	101.41707	-204.62404	101.41707
3450.00000	103.98901	-199.15903	103.98901
3500.00000	106.49570	-199.47316	106.49570
3550.00000	108.41362	-203.43955	108.41362
3600.00000	110.08235	-207.29682	110.08235
3650.00000	111.46787	-212.67964	111.46787
3700.00000	112.72991	-217.37160	112.72991
3750.00000	114.05145	-222.89474	114.05145
3800.00000	115.24061	-229.40927	115.24061
3850.00000	116.25671	-236.36614	116.25671
3900.00000	117.17552	-243.17145	117.17552
3950.00000	118.08245	-250.32685	118.08245
4000.00000	118.88846	-257.80013	118.88846
4050.00000	119.66201	-265.08898	119.66201
4100.00000	120.46487	-272.54186	120.46487
4150.00000	121.45436	-280.79999	121.45436
4200.00000	122.15960	-290.73457	122.15960
4250.00000	122.84194	-301.71510	122.84194
4300.00000	123.26774	-313.72356	123.26774
4350.00000	123.38865	-325.98287	123.38865
4400.00000	123.24363	-337.47238	123.24363
4450.00000	122.93103	-348.05362	122.93103
4500.00000	122.53361	-357.69321	122.53361
4550.00000	122.11217	-366.47804	122.11217
4600.00000	121.65261	-374.86882	121.65261
4650.00000	121.22784	-382.86128	121.22784
4700.00000	120.75740	-391.22295	120.75740
4750.00000	120.14564	-399.92575	120.14564
4800.00000	119.31539	-408.65244	119.31539
4850.00000	118.18726	-416.35476	118.18726
4900.00000	116.85775	-422.00084	116.85775
4950.00000	115.49003	-424.97748	115.49003
5000.00000	114.24559	-425.85647	114.24559
5050.00000	113.12547	-425.45597	113.12547
5100.00000	111.96514	-421.20139	111.96514
5150.00000	111.94569	-416.50396	111.94569
5200.00000	111.15132	-410.74812	111.15132
5250.00000	112.84807	-399.03505	112.84807
5300.00000	115.02079	-408.55665	115.02079
5350.00000	115.10019	-420.97504	115.10019
5400.00000	114.55272	-428.22777	114.55272
5450.00000	114.04143	-432.53570	114.04143
5500.00000	113.63217	-435.74258	113.63217
5550.00000	113.31479	-438.38260	113.31479
5600.00000	113.05310	-440.88166	113.05310
5650.00000	112.83339	-443.31235	112.83339
5700.00000	112.62340	-445.80258	112.62340
5750.00000	112.46174	-448.11141	112.46174
5800.00000	112.28536	-450.49229	112.28536
5850.00000	112.14862	-452.88737	112.14862
5900.00000	112.02421	-455.26139	112.02421
5950.00000	111.88971	-457.60548	111.88971
6000.00000	111.77387	-459.71949	111.77387
6050.00000	111.65293	-461.96999	111.65293
6100.00000	111.57849	-464.19006	111.57849
6150.00000	111.49644	-466.42840	111.49644
6200.00000	111.43960	-468.81907	111.43960
6250.00000	111.39748	-471.41098	111.39748
6300.00000	111.35354	-474.04339	111.35354
6350.00000	111.27256	-476.79661	111.27256
6400.00000	111.18276	-479.40589	111.18276
6450.00000	111.11370	-482.02089	111.11370
6500.00000	111.01495	-484.69493	111.01495
6550.00000	110.92041	-487.26176	110.92041
6600.00000	110.85724	-489.77467	110.85724
6650.00000	110.77891	-492.29173	110.77891
6700.00000	110.70894	-494.90355	110.70894
6750.00000	110.66212	-497.40859	110.66212
6800.00000	110.60007	-499.91959	110.60007
6850.00000	110.56527	-502.38485	110.56527
6900.00000	110.51433	-504.98862	110.51433
6950.00000	110.47048	-507.51210	110.47048
7000.00000	110.44920	-510.19110	110.44920
7050.00000	110.40649	-512.96885	110.40649
7100.00000	110.37501	-515.78773	110.37501
7150.00000	110.34839	-518.53220	110.34839
7200.00000	110.30763	-521.48709	110.30763
7250.00000	110.24813	-524.56321	110.24813
7300.00000	110.22268	-527.66867	110.22268
7350.00000	110.15318	-530.68118	110.15318
7400.00000	110.09256	-533.86542	110.09256
7450.00000	110.00231	-537.04015	110.00231
7500.00000	109.92944	-539.96469	109.92944
7550.00000	109.84791	-543.38836	109.84791
7600.00000	109.72948	-546.55996	109.72948
7650.00000	109.61544	-549.67237	109.61544
7700.00000	109.52243	-552.73708	109.52243
7750.00000	109.37026	-555.78091	109.37026
7800.00000	109.23422	-558.82067	109.23422
7850.00000	109.09520	-561.72038	109.09520
7900.00000	108.98497	-564.56791	108.98497
7950.00000	108.83221	-567.56447	108.83221
8000.00000	108.70684	-570.53477	108.70684
8050.00000	108.55675	-573.85755	108.55675
8100.00000	108.42616	-576.47375	108.42616
8150.00000	108.21225	-579.39029	108.21225
8200.00000	108.07112	-581.99776	108.07112
8250.00000	107.89704	-585.05784	107.89704
8300.00000	107.73534	-587.87880	107.73534
8350.00000	107.53608	-590.54159	107.53608
8400.00000	107.32392	-593.60012	107.32392
8450.00000	107.07637	-596.42926	107.07637
8500.00000	106.84776	-599.16943	106.84776
8550.00000	106.65044	-601.88613	106.65044
8600.00000	106.43146	-604.73100	106.43146
8650.00000	106.18531	-607.49679	106.18531
8700.00000	105.99681	-610.68413	105.99681
8750.00000	105.71132	-612.30080	105.71132
8800.00000	105.50791	-615.04004	105.50791
8850.00000	105.25118	-617.42769	105.25118
8900.00000	105.00257	-619.39008	105.00257
8950.00000	104.73321	-621.83935	104.73321
9000.00000	104.40597	-623.94836	104.40597
9050.00000	104.18669	-626.30910	104.18669
9100.00000	103.94735	-628.58065	103.94735
9150.00000	103.72800	-630.90181	103.72800
9200.00000	103.58078	-633.53077	103.58078
9250.00000	103.36373	-636.08603	103.36373
9300.00000	103.26323	-638.47960	103.26323
9350.00000	103.17264	-640.71602	103.17264
9400.00000	102.97716	-642.25906	102.97716
9450.00000	102.86461	-643.72727	102.86461
9500.00000	102.77385	-644.30586	102.77385
9550.00000	102.75721	-645.12539	102.75721
9600.00000	102.71693	-646.87913	102.71693
9650.00000	102.54253	-648.83965	102.54253
9700.00000	102.35394	-650.14109	102.35394
9750.00000	102.22103	-652.79581	102.22103
9800.00000	102.00091	-654.57833	102.00091
9850.00000	101.87864	-656.17061	101.87864
9900.00000	101.62996	-658.64365	101.62996
9950.00000	101.51300	-660.12308	101.51300
10000.00000	101.43795	-662.25101	101.43795
10050.00000	101.35262	-663.95636	101.35262
10100.00000	101.24165	-665.44937	101.24165
10150.00000	101.01018	-667.64685	101.01018
10200.00000	100.86664	-669.26154	100.86664
10250.00000	100.65354	-671.38764	100.65354
10300.00000	100.58548	-673.61663	100.58548
10350.00000	100.38147	-675.68231	100.38147
10400.00000	100.16288	-678.54855	100.16288
10450.00000	100.11200	-681.42039	100.11200
10500.00000	100.06070	-684.07044	100.06070
10550.00000	100.01464	-686.65637	100.01464
10600.00000	99.93301	-688.92446	99.93301
10650.00000	99.83151	-690.73669	99.83151
10700.00000	99.75106	-693.61672	99.75106
10750.00000	99.67690	-695.82672	99.67690
10800.00000	99.47145	-697.69032	99.47145
10850.00000	99.27452	-700.72602	99.27452
10900.00000	99.10733	-702.89280	99.10733
10950.00000	98.93604	-704.90792	98.93604
11000.00000	98.75296	-707.42020	98.75296
11050.00000	98.40033	-709.68484	98.40033
11100.00000	98.18458	-712.29489	98.18458
11150.00000	97.87082	-714.33488	97.87082
11200.00000	97.68776	-716.24209	97.68776
11250.00000	97.36070	-718.52448	97.36070
11300.00000	97.02428	-720.69122	97.02428
11350.00000	96.74310	-722.21164	96.74310
11400.00000	96.38252	-724.05656	96.38252
11450.00000	96.13244	-726.29895	96.13244
11500.00000	95.96837	-727.38850	95.96837
11550.00000	95.61476	-728.68133	95.61476
11600.00000	95.47044	-730.62655	95.47044
11650.00000	95.21308	-730.69523	95.21308
11700.00000	95.07119	-731.75939	95.07119
11750.00000	94.91733	-733.06482	94.91733
11800.00000	94.75950	-734.65378	94.75950
11850.00000	94.63085	-734.70438	94.63085
11900.00000	94.30645	-736.62693	94.30645
11950.00000	94.16839	-737.62441	94.16839
12000.00000	93.95333	-738.63288	93.95333
12050.00000	93.72888	-739.51841	93.72888
12100.00000	93.64626	-741.64155	93.64626
12150.00000	93.54634	-743.01034	93.54634
12200.00000	93.47590	-744.72209	93.47590
12250.00000	93.31291	-745.62475	93.31291
12300.00000	94.28574	-747.68431	94.28574
12350.00000	92.99819	-749.19471	92.99819
12400.00000	92.78697	-750.30617	92.78697
12450.00000	92.60187	-751.72267	92.60187
12500.00000	92.42017	-753.67259	92.42017
12550.00000	92.24694	-755.63321	92.24694
12600.00000	91.95874	-757.29781	91.95874
12650.00000	91.90219	-758.30018	91.90219
12700.00000	91.53400	-760.31707	91.53400
12750.00000	91.28285	-762.11897	91.28285
12800.00000	90.99003	-763.00215	90.99003
12850.00000	90.43772	-764.09437	90.43772
12900.00000	90.19282	-765.61230	90.19282
12950.00000	89.98132	-766.71450	89.98132
13000.00000	89.57362	-767.94101	89.57362
13050.00000	89.29989	-768.22480	89.29989
13100.00000	88.85975	-769.27602	88.85975
13150.00000	88.65446	-770.01990	88.65446
13200.00000	88.37566	-769.02329	88.37566
13250.00000	88.12754	-769.12086	88.12754
13300.00000	87.78730	-766.31412	87.78730
13350.00000	87.38490	-766.42167	87.38490
13400.00000	87.20536	-765.92365	87.20536
13450.00000	86.79935	-764.48282	86.79935
13500.00000	86.80044	-762.75441	86.80044
13550.00000	86.56817	-761.67023	86.56817
13600.00000	86.55470	-760.32739	86.55470
13650.00000	86.38852	-758.57504	86.38852
13700.00000	86.14813	-757.48656	86.14813
13750.00000	85.90849	-755.68212	85.90849
13800.00000	85.96909	-757.21078	85.96909
13850.00000	86.09245	-757.91589	86.09245
13900.00000	86.21882	-755.07259	86.21882
13950.00000	86.39433	-753.24818	86.39433
14000.00000	86.70311	-750.64636	86.70311
14050.00000	86.75399	-749.95652	86.75399
14100.00000	86.72622	-748.50180	86.72622
14150.00000	86.97478	-749.54258	86.97478
14200.00000	87.38109	-748.95931	87.38109
14250.00000	88.01963	-747.15436	88.01963
14300.00000	88.09281	-747.10264	88.09281
14350.00000	88.25671	-745.60686	88.25671
14400.00000	88.34165	-745.70509	88.34165
14450.00000	88.44622	-744.65172	88.44622
14500.00000	88.61803	-746.82489	88.61803
14550.00000	89.00427	-746.82895	89.00427
14600.00000	89.22324	-748.08448	89.22324
14650.00000	89.53351	-746.66194	89.53351
14700.00000	89.88298	-751.55360	89.88298
14750.00000	90.14203	-751.41467	90.14203
14800.00000	90.25849	-751.80955	90.25849
14850.00000	90.64008	-752.80188	90.64008
14900.00000	91.03902	-753.28932	91.03902
14950.00000	91.30430	-754.82680	91.30430
15000.00000	91.59886	-755.68937	91.59886
15050.00000	91.68674	-755.91483	91.68674
15100.00000	91.95691	-756.63295	91.95691
15150.00000	92.25365	-759.39801	92.25365
15200.00000	92.45069	-759.52026	92.45069
15250.00000	92.38537	-761.40968	92.38537
15300.00000	92.83310	-763.54711	92.83310
15350.00000	92.93274	-766.04142	92.93274
15400.00000	93.10937	-766.19782	93.10937
15450.00000	93.19809	-768.15547	93.19809
15500.00000	93.37055	-769.61320	93.37055
15550.00000	93.59853	-771.14411	93.59853
15600.00000	93.67514	-773.05702	93.67514
15650.00000	93.96100	-773.23412	93.96100
15700.00000	94.00368	-775.66080	94.00368
15750.00000	94.25995	-776.49555	94.25995
15800.00000	94.43838	-777.23092	94.43838
15850.00000	94.49485	-778.91874	94.49485
15900.00000	94.57287	-780.06470	94.57287
15950.00000	94.78381	-781.81251	94.78381
16000.00000	94.95694	-783.05479	94.95694
16050.00000	95.25424	-783.44763	95.25424
16100.00000	95.25200	-785.23957	95.25200
16150.00000	95.40202	-786.15191	95.40202
16200.00000	95.71982	-788.00455	95.71982
16250.00000	95.86706	-788.99552	95.86706
16300.00000	96.28945	-790.43271	96.28945
16350.00000	96.49827	-791.11637	96.49827
16400.00000	96.72511	-792.49173	96.72511
16450.00000	97.05078	-793.99412	97.05078
16500.00000	97.30996	-795.59828	97.30996
16550.00000	97.64849	-797.87492	97.64849
16600.00000	97.99235	-799.76714	97.99235
16650.00000	98.25462	-801.55000	98.25462
16700.00000	98.53058	-803.77340	98.53058
16750.00000	98.78661	-806.54460	98.78661
16800.00000	99.01215	-809.05096	99.01215
16850.00000	99.38352	-811.75849	99.38352
16900.00000	99.65971	-814.64981	99.65971
16950.00000	99.90400	-817.05097	99.90400
17000.00000	100.00060	-820.02679	100.00060
17050.00000	100.20182	-822.44362	100.20182
17100.00000	100.28638	-824.57819	100.28638
17150.00000	100.66458	-828.46418	100.66458
17200.00000	100.84246	-830.74405	100.84246
17250.00000	100.93369	-834.11067	100.93369
17300.00000	101.14570	-836.78017	101.14570
17350.00000	101.13772	-839.45356	101.13772
17400.00000	101.35043	-842.70338	101.35043
17450.00000	101.43074	-846.07646	101.43074
17500.00000	101.59852	-848.59747	101.59852
17550.00000	101.67869	-851.35042	101.67869
17600.00000	101.83916	-853.89293	101.83916
17650.00000	101.89948	-857.43669	101.89948
17700.00000	101.98100	-860.57775	101.98100
17750.00000	102.18414	-862.80371	102.18414
17800.00000	102.13785	-866.06932	102.13785
17850.00000	102.24159	-868.74189	102.24159
17900.00000	102.30691	-871.44790	102.30691
17950.00000	102.40901	-874.84068	102.40901
18000.00000	102.46874	-878.15466	102.46874
18050.00000	102.65562	-880.55691	102.65562
18100.00000	102.63895	-884.03127	102.63895
18150.00000	102.69881	-886.34413	102.69881
18200.00000	102.67101	-889.53773	102.67101
18250.00000	102.77017	-892.09341	102.77017
18300.00000	102.87572	-894.74030	102.87572
18350.00000	102.86236	-897.60193	102.86236
18400.00000	102.92158	-900.84812	102.92158
18450.00000	102.89364	-904.37865	102.89364
18500.00000	102.92598	-907.22200	102.92598
18550.00000	102.89590	-909.55347	102.89590
18600.00000	103.01921	-912.76640	103.01921
18650.00000	102.90056	-915.38916	102.90056
18700.00000	102.92882	-918.33787	102.92882
18750.00000	102.93186	-920.88597	102.93186
18800.00000	103.05450	-923.21967	103.05450
18850.00000	102.93136	-926.10818	102.93136
18900.00000	102.94956	-928.61727	102.94956
18950.00000	102.97925	-931.60698	102.97925
19000.00000	102.83645	-933.91236	102.83645
19050.00000	102.98143	-936.49182	102.98143
19100.00000	102.92739	-938.81921	102.92739
19150.00000	103.06752	-941.37382	103.06752
19200.00000	103.06800	-943.58671	103.06800
19250.00000	103.06969	-947.24614	103.06969
19300.00000	103.01547	-949.14992	103.01547
19350.00000	103.08003	-951.54874	103.08003
19400.00000	103.05572	-954.13481	103.05572
19450.00000	103.17765	-956.18882	103.17765
19500.00000	103.11560	-959.69845	103.11560
19550.00000	103.19281	-962.05531	103.19281
19600.00000	103.29970	-965.23851	103.29970
19650.00000	103.23274	-967.33484	103.23274
19700.00000	103.16046	-970.34858	103.16046
19750.00000	103.18123	-972.55432	103.18123
19800.00000	103.31032	-976.23519	103.31032
19850.00000	103.32890	-978.66100	103.32890
19900.00000	103.28060	-982.20626	103.28060
19950.00000	103.26243	-985.02018	103.26243
20000.00000	103.26070	-987.97878	103.26070
20050.00000	103.26974	-990.90035	103.26974
20100.00000	103.14383	-993.94071	103.14383
20150.00000	103.16516	-996.10517	103.16516
20200.00000	103.07539	-999.56162	103.07539
20250.00000	102.94272	-1002.36682	102.94272
20300.00000	102.78586	-1005.24156	102.78586
20350.00000	102.78835	-1008.16993	102.78835
20400.00000	102.62003	-1010.05785	102.62003
20450.00000	102.40458	-1012.68977	102.40458
20500.00000	102.33140	-1015.50833	102.33140
20550.00000	101.97934	-1017.06983	101.97934
20600.00000	101.92740	-1018.97825	101.92740
20650.00000	101.78239	-1020.98189	101.78239
20700.00000	101.59188	-1022.59590	101.59188
20750.00000	101.49359	-1024.15416	101.49359
20800.00000	101.32751	-1025.28243	101.32751
20850.00000	101.29437	-1026.62095	101.29437
20900.00000	101.15200	-1027.57308	101.15200
20950.00000	101.05195	-1028.08011	101.05195
21000.00000	101.03240	-1028.96086	101.03240
21050.00000	101.19915	-1029.31687	101.19915
21100.00000	101.23030	-1029.75653	101.23030
21150.00000	101.40146	-1030.96395	101.40146
21200.00000	101.58101	-1031.75785	101.58101
21250.00000	101.74056	-1034.09210	101.74056
21300.00000	101.97275	-1035.20275	101.97275
21350.00000	102.15664	-1036.86924	102.15664
21400.00000	102.33287	-1039.26877	102.33287
21450.00000	102.54256	-1041.64398	102.54256
21500.00000	102.70160	-1044.55903	102.70160
21550.00000	102.73180	-1047.03334	102.73180
21600.00000	102.93916	-1049.90656	102.93916
21650.00000	102.99967	-1053.11723	102.99967
21700.00000	103.04619	-1055.77379	103.04619
21750.00000	103.07835	-1058.92478	103.07835
21800.00000	103.11261	-1061.84528	103.11261
21850.00000	103.00701	-1064.56159	103.00701
21900.00000	103.03916	-1067.45903	103.03916
21950.00000	102.97345	-1069.90389	102.97345
22000.00000	103.00796	-1072.54879	103.00796
22050.00000	102.91925	-1074.67042	102.91925
22100.00000	102.84498	-1077.41094	102.84498
22150.00000	102.80304	-1079.50855	102.80304
22200.00000	102.81723	-1082.05999	102.81723
22250.00000	102.74164	-1083.90826	102.74164
22300.00000	102.56054	-1086.45184	102.56054
22350.00000	102.65354	-1088.72506	102.65354
22400.00000	102.61527	-1091.27387	102.61527
22450.00000	102.51355	-1093.34812	102.51355
22500.00000	102.40284	-1094.43171	102.40284
22550.00000	102.38461	-1097.00442	102.38461
22600.00000	102.31271	-1100.11383	102.31271
22650.00000	102.28423	-1102.29392	102.28423
