---ACOUSTIC CALIBRATION---
Filename: C:\Data\AZH DATA\AZH72\RightPrimary.calib
Date: 8/27/2019 5:52:34 PM
Format: 4
Probe Tube Correction File: C:\Data\Probe Tube Calibrations\50_ProbeTube.calib
Experiment VIs: 850
EPL_CFTS.exe V12.0.1 (2012)
DAQmx V9.6

Attenuation (dB): 40.000000
Min Freq (Hz): 50.000000
Max Freq (Hz): 49950.000000
Freq Step (Hz): 50.000000
Sample Rate (Hz): 100000.000000
[Smoothing]
Method=None
MA.Iterations=0
MA.Length=0
Loess.Length=0
Loess.Type=Linear
Loess.Robust=FALSE


Freq(Hz)	Mag(dB)	Phase(deg)	Unsmoothed(dB)

50.00000	103.06817	477.66344	103.06817
100.00000	80.71314	576.63461	80.71314
150.00000	76.77730	468.41278	76.77730
200.00000	81.91506	432.47448	81.91506
250.00000	85.78261	439.59655	85.78261
300.00000	92.53302	373.16871	92.53302
350.00000	83.71583	436.02009	83.71583
400.00000	86.76431	371.90606	86.76431
450.00000	86.69699	366.11450	86.69699
500.00000	86.88127	378.85758	86.88127
550.00000	92.36535	371.65023	92.36535
600.00000	93.89653	364.28242	93.89653
650.00000	96.52815	352.50817	96.52815
700.00000	98.70022	335.84154	98.70022
750.00000	100.69327	319.10154	100.69327
800.00000	101.38752	292.09224	101.38752
850.00000	101.09404	278.41876	101.09404
900.00000	99.49168	259.23707	99.49168
950.00000	97.63929	259.02488	97.63929
1000.00000	96.25681	258.78268	96.25681
1050.00000	94.40451	273.56299	94.40451
1100.00000	95.96335	294.68676	95.96335
1150.00000	98.66260	300.52573	98.66260
1200.00000	101.49269	298.12263	101.49269
1250.00000	103.17998	290.75037	103.17998
1300.00000	104.95429	285.11204	104.95429
1350.00000	106.14405	275.58940	106.14405
1400.00000	107.00280	269.15777	107.00280
1450.00000	107.92128	262.08367	107.92128
1500.00000	108.99062	255.83242	108.99062
1550.00000	109.88160	246.95377	109.88160
1600.00000	111.23831	237.66002	111.23831
1650.00000	112.32158	220.92461	112.32158
1700.00000	111.03803	210.83827	111.03803
1750.00000	110.81635	205.15503	110.81635
1800.00000	110.51957	200.24862	110.51957
1850.00000	110.69047	199.14573	110.69047
1900.00000	111.73544	195.13496	111.73544
1950.00000	112.47837	182.30880	112.47837
2000.00000	111.64385	170.33554	111.64385
2050.00000	110.30990	174.02822	110.30990
2100.00000	112.07302	174.36858	112.07302
2150.00000	112.69081	163.13028	112.69081
2200.00000	112.66775	153.15346	112.66775
2250.00000	112.07095	146.01294	112.07095
2300.00000	112.23595	140.64629	112.23595
2350.00000	111.95615	134.10207	111.95615
2400.00000	111.70932	128.70801	111.70932
2450.00000	111.43815	121.87388	111.43815
2500.00000	111.08921	116.97325	111.08921
2550.00000	110.67918	111.36363	110.67918
2600.00000	110.09386	106.94849	110.09386
2650.00000	109.63735	103.11730	109.63735
2700.00000	109.05539	99.32427	109.05539
2750.00000	108.56410	95.87911	108.56410
2800.00000	107.96910	93.38934	107.96910
2850.00000	107.41686	91.11901	107.41686
2900.00000	106.86199	88.89862	106.86199
2950.00000	106.26678	88.00508	106.26678
3000.00000	105.68342	86.54337	105.68342
3050.00000	104.97936	85.15041	104.97936
3100.00000	104.22544	85.07160	104.22544
3150.00000	103.11129	84.45331	103.11129
3200.00000	101.84048	89.25384	101.84048
3250.00000	100.76389	97.19016	100.76389
3300.00000	99.84136	107.49778	99.84136
3350.00000	99.67644	124.62118	99.67644
3400.00000	101.00720	143.77978	101.00720
3450.00000	103.62709	153.83537	103.62709
3500.00000	106.23087	156.47937	106.23087
3550.00000	108.34492	154.33661	108.34492
3600.00000	110.23547	150.82480	110.23547
3650.00000	111.68797	146.01889	111.68797
3700.00000	113.00538	141.34525	113.00538
3750.00000	114.31305	136.58248	114.31305
3800.00000	115.57087	130.80917	115.57087
3850.00000	116.66595	124.49539	116.66595
3900.00000	117.68724	118.06675	117.68724
3950.00000	118.69891	111.05218	118.69891
4000.00000	119.57887	103.67216	119.57887
4050.00000	120.42700	96.42436	120.42700
4100.00000	121.30517	89.14586	121.30517
4150.00000	122.37175	80.84804	122.37175
4200.00000	123.16092	71.02952	123.16092
4250.00000	123.92720	59.91118	123.92720
4300.00000	124.45157	47.64979	124.45157
4350.00000	124.64670	34.86372	124.64670
4400.00000	124.54628	22.76731	124.54628
4450.00000	124.25598	11.59642	124.25598
4500.00000	123.84669	 1.49914	123.84669
4550.00000	123.38677	-7.84723	123.38677
4600.00000	122.87943	-16.44369	122.87943
4650.00000	122.41650	-24.52673	122.41650
4700.00000	121.91376	-32.87283	121.91376
4750.00000	121.29470	-41.45158	121.29470
4800.00000	120.49977	-50.16763	120.49977
4850.00000	119.41935	-58.22180	119.41935
4900.00000	118.09513	-64.35730	118.09513
4950.00000	116.66197	-68.00465	116.66197
5000.00000	115.29227	-69.23389	115.29227
5050.00000	114.16731	-68.59128	114.16731
5100.00000	112.92721	-65.12231	112.92721
5150.00000	112.77492	-59.15970	112.77492
5200.00000	111.91800	-55.75878	111.91800
5250.00000	112.83237	-40.68096	112.83237
5300.00000	115.64971	-45.01120	115.64971
5350.00000	116.26609	-59.06915	116.26609
5400.00000	115.77621	-68.16755	115.77621
5450.00000	115.23446	-73.23880	115.23446
5500.00000	114.78363	-76.85346	114.78363
5550.00000	114.45665	-79.57265	114.45665
5600.00000	114.18374	-82.21438	114.18374
5650.00000	113.96494	-84.62041	113.96494
5700.00000	113.74559	-87.05434	113.74559
5750.00000	113.59725	-89.48265	113.59725
5800.00000	113.43561	-91.95652	113.43561
5850.00000	113.29163	-94.45469	113.29163
5900.00000	113.17850	-96.90796	113.17850
5950.00000	113.05460	-99.37027	113.05460
6000.00000	112.94479	-101.59283	112.94479
6050.00000	112.83062	-104.00348	112.83062
6100.00000	112.74812	-106.39486	112.74812
6150.00000	112.67182	-108.73975	112.67182
6200.00000	112.60619	-111.21159	112.60619
6250.00000	112.57035	-113.73648	112.57035
6300.00000	112.53824	-116.45497	112.53824
6350.00000	112.46843	-119.29496	112.46843
6400.00000	112.39235	-122.08497	112.39235
6450.00000	112.33420	-124.87899	112.33420
6500.00000	112.25522	-127.74348	112.25522
6550.00000	112.16451	-130.54945	112.16451
6600.00000	112.10609	-133.31188	112.10609
6650.00000	112.02244	-136.08102	112.02244
6700.00000	111.96850	-138.95347	111.96850
6750.00000	111.88521	-141.82581	111.88521
6800.00000	111.82967	-144.65675	111.82967
6850.00000	111.75880	-147.50054	111.75880
6900.00000	111.69800	-150.38497	111.69800
6950.00000	111.62231	-153.18196	111.62231
7000.00000	111.56246	-156.25744	111.56246
7050.00000	111.48580	-159.36567	111.48580
7100.00000	111.42407	-162.43487	111.42407
7150.00000	111.32098	-165.62318	111.32098
7200.00000	111.22526	-168.77103	111.22526
7250.00000	111.08649	-172.24364	111.08649
7300.00000	110.96569	-175.50784	110.96569
7350.00000	110.79369	-178.61348	110.79369
7400.00000	110.64540	-181.83935	110.64540
7450.00000	110.45888	-184.92657	110.45888
7500.00000	110.26556	-187.96282	110.26556
7550.00000	110.05141	-191.02086	110.05141
7600.00000	109.82802	-193.72092	109.82802
7650.00000	109.60995	-196.34728	109.60995
7700.00000	109.45056	-198.82423	109.45056
7750.00000	109.20245	-201.39531	109.20245
7800.00000	108.99852	-203.70639	108.99852
7850.00000	108.81437	-205.89199	108.81437
7900.00000	108.65038	-207.92393	108.65038
7950.00000	108.52415	-210.05917	108.52415
8000.00000	108.39875	-212.17828	108.39875
8050.00000	108.29336	-214.62235	108.29336
8100.00000	108.19689	-216.31994	108.19689
8150.00000	108.06754	-218.43284	108.06754
8200.00000	108.02327	-220.36552	108.02327
8250.00000	107.92981	-222.69764	107.92981
8300.00000	107.89589	-225.01789	107.89589
8350.00000	107.81582	-227.27652	107.81582
8400.00000	107.74825	-230.28234	107.74825
8450.00000	107.62133	-232.92714	107.62133
8500.00000	107.51565	-236.04739	107.51565
8550.00000	107.43815	-239.05037	107.43815
8600.00000	107.31748	-242.63926	107.31748
8650.00000	107.16493	-246.08383	107.16493
8700.00000	107.03097	-250.17736	107.03097
8750.00000	106.81638	-252.74148	106.81638
8800.00000	106.63816	-256.63498	106.63816
8850.00000	106.34713	-260.01433	106.34713
8900.00000	106.06193	-262.83747	106.06193
8950.00000	105.74581	-265.96780	105.74581
9000.00000	105.33044	-268.78430	105.33044
9050.00000	104.94860	-271.66739	104.94860
9100.00000	104.55446	-274.13264	104.55446
9150.00000	104.16761	-276.50830	104.16761
9200.00000	103.82345	-279.06262	103.82345
9250.00000	103.39291	-281.36123	103.39291
9300.00000	103.09673	-283.49404	103.09673
9350.00000	102.85948	-285.18248	102.85948
9400.00000	102.49588	-286.31520	102.49588
9450.00000	102.24256	-287.19207	102.24256
9500.00000	102.03137	-286.84673	102.03137
9550.00000	101.94906	-286.58565	101.94906
9600.00000	101.92761	-287.29907	101.92761
9650.00000	101.76848	-288.10280	101.76848
9700.00000	101.62509	-288.27917	101.62509
9750.00000	101.58546	-289.60427	101.58546
9800.00000	101.49478	-290.04562	101.49478
9850.00000	101.49990	-290.77897	101.49990
9900.00000	101.38948	-292.20500	101.38948
9950.00000	101.46809	-293.19877	101.46809
10000.00000	101.55920	-295.07525	101.55920
10050.00000	101.60314	-296.63522	101.60314
10100.00000	101.64815	-298.32296	101.64815
10150.00000	101.57076	-300.72473	101.57076
10200.00000	101.58082	-303.17442	101.58082
10250.00000	101.50047	-305.92356	101.50047
10300.00000	101.56115	-308.79830	101.56115
10350.00000	101.48147	-311.61077	101.48147
10400.00000	101.35210	-314.97940	101.35210
10450.00000	101.36001	-318.43742	101.36001
10500.00000	101.36155	-321.52041	101.36155
10550.00000	101.28375	-324.53076	101.28375
10600.00000	101.18740	-327.22059	101.18740
10650.00000	101.02612	-329.44250	101.02612
10700.00000	100.87630	-332.82034	100.87630
10750.00000	100.73810	-335.43983	100.73810
10800.00000	100.48032	-337.89445	100.48032
10850.00000	100.24223	-341.51318	100.24223
10900.00000	100.03890	-344.11091	100.03890
10950.00000	99.82715	-346.74054	99.82715
11000.00000	99.60866	-349.41764	99.60866
11050.00000	99.23241	-351.88422	99.23241
11100.00000	98.99900	-354.69117	98.99900
11150.00000	98.64183	-356.71714	98.64183
11200.00000	98.39997	-358.60684	98.39997
11250.00000	98.02800	-360.98422	98.02800
11300.00000	97.64562	-363.24255	97.64562
11350.00000	97.30869	-364.93732	97.30869
11400.00000	96.88647	-367.00566	96.88647
11450.00000	96.58938	-369.43698	96.58938
11500.00000	96.38545	-370.54206	96.38545
11550.00000	96.00139	-371.82240	96.00139
11600.00000	95.81127	-373.81001	95.81127
11650.00000	95.50753	-374.02600	95.50753
11700.00000	95.29533	-375.22750	95.29533
11750.00000	95.07864	-376.40482	95.07864
11800.00000	94.82287	-378.08072	94.82287
11850.00000	94.62076	-378.10839	94.62076
11900.00000	94.23256	-380.01626	94.23256
11950.00000	93.97681	-380.99202	93.97681
12000.00000	93.73302	-381.50515	93.73302
12050.00000	93.41746	-382.00554	93.41746
12100.00000	93.24143	-383.85134	93.24143
12150.00000	93.00508	-385.18975	93.00508
12200.00000	92.83946	-386.15212	92.83946
12250.00000	92.56269	-386.76131	92.56269
12300.00000	93.44890	-388.04111	93.44890
12350.00000	92.08303	-388.91514	92.08303
12400.00000	91.83801	-388.85660	91.83801
12450.00000	91.58755	-389.77690	91.58755
12500.00000	91.36029	-390.69512	91.36029
12550.00000	91.20182	-391.75913	91.20182
12600.00000	90.92011	-392.46537	90.92011
12650.00000	90.82850	-392.76794	90.82850
12700.00000	90.56955	-392.72332	90.56955
12750.00000	90.34824	-393.27990	90.34824
12800.00000	90.11691	-393.19507	90.11691
12850.00000	89.61769	-393.12401	89.61769
12900.00000	89.43390	-393.87092	89.43390
12950.00000	89.31371	-394.18944	89.31371
13000.00000	89.08772	-394.68769	89.08772
13050.00000	88.98201	-393.87869	88.98201
13100.00000	88.87826	-394.11417	88.87826
13150.00000	88.77902	-394.82167	88.77902
13200.00000	88.83792	-392.08797	88.83792
13250.00000	88.74445	-392.50995	88.74445
13300.00000	88.59864	-390.77911	88.59864
13350.00000	88.43237	-390.38533	88.43237
13400.00000	88.48367	-391.09256	88.48367
13450.00000	88.26622	-391.04123	88.26622
13500.00000	88.49347	-390.60911	88.49347
13550.00000	88.43778	-390.81461	88.43778
13600.00000	88.53073	-390.29043	88.53073
13650.00000	88.55336	-389.77694	88.55336
13700.00000	88.23761	-389.86087	88.23761
13750.00000	88.03938	-389.13782	88.03938
13800.00000	87.83848	-393.30222	87.83848
13850.00000	87.96530	-394.66159	87.96530
13900.00000	87.96407	-395.41596	87.96407
13950.00000	88.15951	-394.74682	88.15951
14000.00000	88.33380	-392.32482	88.33380
14050.00000	88.35376	-392.27308	88.35376
14100.00000	88.00971	-390.45614	88.00971
14150.00000	87.97323	-391.23437	87.97323
14200.00000	87.94099	-392.01687	87.94099
14250.00000	88.59310	-390.49828	88.59310
14300.00000	88.59219	-389.90968	88.59219
14350.00000	88.58601	-387.22483	88.58601
14400.00000	88.48994	-386.90388	88.48994
14450.00000	88.37798	-385.69840	88.37798
14500.00000	88.32368	-387.45040	88.32368
14550.00000	88.75759	-386.77733	88.75759
14600.00000	88.78271	-387.14647	88.78271
14650.00000	89.13596	-384.70044	89.13596
14700.00000	89.38698	-388.09633	89.38698
14750.00000	89.47158	-387.57678	89.47158
14800.00000	89.55482	-387.64126	89.55482
14850.00000	89.96299	-387.22039	89.96299
14900.00000	90.50780	-387.16897	90.50780
14950.00000	90.64781	-386.32195	90.64781
15000.00000	90.80236	-386.75303	90.80236
15050.00000	90.69338	-386.45776	90.69338
15100.00000	90.98048	-386.82119	90.98048
15150.00000	91.47126	-389.47405	91.47126
15200.00000	91.64293	-388.45694	91.64293
15250.00000	91.91806	-389.22192	91.91806
15300.00000	92.28609	-389.11725	92.28609
15350.00000	92.34472	-389.50773	92.34472
15400.00000	92.49294	-389.63052	92.49294
15450.00000	92.74060	-390.71712	92.74060
15500.00000	93.22637	-391.63287	93.22637
15550.00000	93.59449	-391.86042	93.59449
15600.00000	93.78631	-393.05504	93.78631
15650.00000	94.24378	-392.39282	94.24378
15700.00000	94.45143	-394.19874	94.45143
15750.00000	94.97797	-395.09378	94.97797
15800.00000	95.31670	-395.04415	95.31670
15850.00000	95.74065	-396.17105	95.74065
15900.00000	95.97136	-397.80383	95.97136
15950.00000	96.38208	-399.90896	96.38208
16000.00000	96.80780	-401.92673	96.80780
16050.00000	97.28603	-402.84231	97.28603
16100.00000	97.47481	-404.70305	97.47481
16150.00000	97.77202	-406.73358	97.77202
16200.00000	98.13218	-409.50518	98.13218
16250.00000	98.46834	-411.74478	98.46834
16300.00000	99.02651	-414.50856	99.02651
16350.00000	99.27282	-416.34194	99.27282
16400.00000	99.51528	-418.11503	99.51528
16450.00000	99.80606	-420.50620	99.80606
16500.00000	100.07558	-423.18070	100.07558
16550.00000	100.44989	-426.30299	100.44989
16600.00000	100.71161	-428.60357	100.71161
16650.00000	100.91352	-430.67028	100.91352
16700.00000	101.18427	-433.38433	101.18427
16750.00000	101.36498	-436.62621	101.36498
16800.00000	101.66076	-439.34606	101.66076
16850.00000	101.97084	-441.92020	101.97084
16900.00000	102.22284	-444.54357	102.22284
16950.00000	102.42581	-447.29938	102.42581
17000.00000	102.52036	-450.62898	102.52036
17050.00000	102.79710	-452.95862	102.79710
17100.00000	102.94191	-454.57301	102.94191
17150.00000	103.29208	-458.20164	103.29208
17200.00000	103.45280	-460.76636	103.45280
17250.00000	103.60377	-464.34881	103.60377
17300.00000	103.85658	-467.36547	103.85658
17350.00000	103.94112	-469.93233	103.94112
17400.00000	104.18006	-472.73239	104.18006
17450.00000	104.28305	-476.57572	104.28305
17500.00000	104.48294	-479.48857	104.48294
17550.00000	104.62333	-482.49010	104.62333
17600.00000	104.87018	-485.15175	104.87018
17650.00000	104.98097	-489.05662	104.98097
17700.00000	105.07643	-492.36608	105.07643
17750.00000	105.34271	-494.95425	105.34271
17800.00000	105.32847	-498.52594	105.32847
17850.00000	105.48320	-501.30674	105.48320
17900.00000	105.54265	-504.78893	105.54265
17950.00000	105.70975	-508.08813	105.70975
18000.00000	105.79629	-511.91080	105.79629
18050.00000	106.04005	-514.58233	106.04005
18100.00000	106.06080	-518.21629	106.06080
18150.00000	106.12699	-520.97728	106.12699
18200.00000	106.12014	-524.81748	106.12014
18250.00000	106.30399	-527.60690	106.30399
18300.00000	106.43766	-530.74635	106.43766
18350.00000	106.50033	-533.99597	106.50033
18400.00000	106.46712	-537.59721	106.46712
18450.00000	106.49548	-542.33354	106.49548
18500.00000	106.57908	-545.64355	106.57908
18550.00000	106.59660	-548.44356	106.59660
18600.00000	106.69019	-552.32124	106.69019
18650.00000	106.55946	-555.60753	106.55946
18700.00000	106.55126	-559.47131	106.55126
18750.00000	106.60864	-562.71316	106.60864
18800.00000	106.69724	-565.49644	106.69724
18850.00000	106.52471	-569.08132	106.52471
18900.00000	106.48077	-572.34339	106.48077
18950.00000	106.48360	-576.05597	106.48360
19000.00000	106.28399	-578.80871	106.28399
19050.00000	106.36266	-582.15720	106.36266
19100.00000	106.25194	-584.98855	106.25194
19150.00000	106.33302	-587.94707	106.33302
19200.00000	106.24807	-590.57586	106.24807
19250.00000	106.15689	-594.66665	106.15689
19300.00000	106.03836	-596.93492	106.03836
19350.00000	106.01055	-599.94764	106.01055
19400.00000	105.91146	-602.81809	105.91146
19450.00000	105.97151	-605.08759	105.97151
19500.00000	105.80765	-608.63655	105.80765
19550.00000	105.77348	-611.48201	105.77348
19600.00000	105.78956	-614.99355	105.78956
19650.00000	105.67316	-617.48254	105.67316
19700.00000	105.50678	-620.30226	105.50678
19750.00000	105.42087	-622.63468	105.42087
19800.00000	105.43704	-626.49638	105.43704
19850.00000	105.38536	-629.04121	105.38536
19900.00000	105.22078	-632.54901	105.22078
19950.00000	105.11190	-635.18786	105.11190
20000.00000	105.01428	-638.10297	105.01428
20050.00000	104.93984	-640.92560	104.93984
20100.00000	104.72159	-643.63055	104.72159
20150.00000	104.66042	-645.73007	104.66042
20200.00000	104.50463	-649.11722	104.50463
20250.00000	104.30216	-651.59228	104.30216
20300.00000	104.08938	-654.18289	104.08938
20350.00000	103.99825	-656.81000	103.99825
20400.00000	103.79884	-658.47106	103.79884
20450.00000	103.55206	-660.78152	103.55206
20500.00000	103.42177	-663.33942	103.42177
20550.00000	103.03181	-664.60529	103.03181
20600.00000	102.93836	-666.28585	102.93836
20650.00000	102.77031	-668.07330	102.77031
20700.00000	102.55036	-669.43242	102.55036
20750.00000	102.43581	-670.83099	102.43581
20800.00000	102.24822	-671.58645	102.24822
20850.00000	102.16414	-672.97240	102.16414
20900.00000	102.00658	-673.83194	102.00658
20950.00000	101.88526	-674.06700	101.88526
21000.00000	101.83428	-674.72884	101.83428
21050.00000	101.95402	-675.05418	101.95402
21100.00000	101.94905	-675.39254	101.94905
21150.00000	102.07632	-676.31795	102.07632
21200.00000	102.21307	-676.94187	102.21307
21250.00000	102.33998	-679.11945	102.33998
21300.00000	102.54900	-680.00826	102.54900
21350.00000	102.67754	-681.39288	102.67754
21400.00000	102.82963	-683.61061	102.82963
21450.00000	102.99531	-685.64818	102.99531
21500.00000	103.12337	-688.27253	103.12337
21550.00000	103.15169	-690.41522	103.15169
21600.00000	103.32099	-692.94037	103.32099
21650.00000	103.32911	-695.92626	103.32911
21700.00000	103.37053	-698.11853	103.37053
21750.00000	103.41300	-700.91464	103.41300
21800.00000	103.42250	-703.38788	103.42250
21850.00000	103.33013	-705.95121	103.33013
21900.00000	103.34454	-708.42145	103.34454
21950.00000	103.26479	-710.47226	103.26479
22000.00000	103.30631	-712.93407	103.30631
22050.00000	103.21833	-714.56970	103.21833
22100.00000	103.14776	-717.29825	103.14776
22150.00000	103.10664	-718.92712	103.10664
22200.00000	103.09477	-721.26758	103.09477
22250.00000	103.05313	-722.72107	103.05313
22300.00000	102.88626	-724.90965	102.88626
22350.00000	102.98423	-726.75291	102.98423
22400.00000	102.96074	-729.16154	102.96074
22450.00000	102.89409	-731.04668	102.89409
22500.00000	102.77753	-731.86562	102.77753
22550.00000	102.77158	-734.34597	102.77158
22600.00000	102.72746	-736.78903	102.72746
22650.00000	102.70207	-738.89557	102.70207
22700.00000	102.65005	-740.23963	102.65005
22750.00000	102.60338	-740.55402	102.60338
