---ACOUSTIC CALIBRATION---
Filename: C:\Data\CL0809 DATA\CL08094\RightSecondary.calib
Date: 8/9/2019 2:30:16 PM
Format: 4
Probe Tube Correction File: C:\Data\Probe Tube Calibrations\74_ProbeTube.calib
Experiment VIs: 2128
EPL_CFTS.exe V15.0.1f5 (2015)
DAQmx V15.1

Attenuation (dB): 40.000000
Min Freq (Hz): 50.000000
Max Freq (Hz): 99950.000000
Freq Step (Hz): 50.000000
Sample Rate (Hz): 200000.000000
[Smoothing]
Method=None
MA.Iterations=0
MA.Length=0
Loess.Length=0
Loess.Type=Linear
Loess.Robust=FALSE


Freq(Hz)	Mag(dB)	Phase(deg)	Unsmoothed(dB)

50.00000	92.35849	324.67550	92.35849
100.00000	70.79673	238.62505	70.79673
150.00000	60.75344	419.17581	60.75344
200.00000	69.30976	507.42894	69.30976
250.00000	53.92545	882.70939	53.92545
300.00000	59.94135	901.77689	59.94135
350.00000	65.39155	1057.29904	65.39155
400.00000	41.79606	1184.04681	41.79606
450.00000	63.48069	1135.97119	63.48069
500.00000	74.47171	1209.51169	74.47171
550.00000	80.08596	1162.56923	80.08596
600.00000	79.72472	1106.22501	79.72472
650.00000	86.19217	1113.32474	86.19217
700.00000	84.75545	1102.98973	84.75545
750.00000	87.99430	1069.28486	87.99430
800.00000	89.77580	1046.97892	89.77580
850.00000	89.06109	1036.82593	89.06109
900.00000	90.34400	1026.42518	90.34400
950.00000	91.18116	1016.04028	91.18116
1000.00000	91.34072	1008.60396	91.34072
1050.00000	90.90701	988.61027	90.90701
1100.00000	89.12278	988.93485	89.12278
1150.00000	89.19538	977.39722	89.19538
1200.00000	88.90914	992.92123	88.90914
1250.00000	89.76044	989.33284	89.76044
1300.00000	91.48106	997.40928	91.48106
1350.00000	92.14479	988.01187	92.14479
1400.00000	91.95353	996.05183	91.95353
1450.00000	93.89643	988.85764	93.89643
1500.00000	94.92297	986.08655	94.92297
1550.00000	96.20497	979.56196	96.20497
1600.00000	98.16340	974.40991	98.16340
1650.00000	99.27320	970.28524	99.27320
1700.00000	102.82579	950.58847	102.82579
1750.00000	100.14933	935.01790	100.14933
1800.00000	99.84344	923.48508	99.84344
1850.00000	99.28513	916.24801	99.28513
1900.00000	99.19978	910.97362	99.19978
1950.00000	98.65600	906.17230	98.65600
2000.00000	97.92753	900.34838	97.92753
2050.00000	96.55402	905.63940	96.55402
2100.00000	97.41117	909.38174	97.41117
2150.00000	98.82389	901.90071	98.82389
2200.00000	98.52398	893.64862	98.52398
2250.00000	98.44128	886.76264	98.44128
2300.00000	98.16651	888.82203	98.16651
2350.00000	97.93892	882.01874	97.93892
2400.00000	97.70529	882.70423	97.70529
2450.00000	97.76736	878.30113	97.76736
2500.00000	97.13212	876.16938	97.13212
2550.00000	97.45725	876.04538	97.45725
2600.00000	97.63864	877.88165	97.63864
2650.00000	97.87726	875.01248	97.87726
2700.00000	97.87286	874.10615	97.87286
2750.00000	97.78062	875.29284	97.78062
2800.00000	98.69475	870.52764	98.69475
2850.00000	98.51973	869.28155	98.51973
2900.00000	99.18381	867.49967	99.18381
2950.00000	99.51030	865.08390	99.51030
3000.00000	99.72171	862.86850	99.72171
3050.00000	99.76281	860.17403	99.76281
3100.00000	100.31352	857.06128	100.31352
3150.00000	100.09921	853.44131	100.09921
3200.00000	100.43156	851.15389	100.43156
3250.00000	100.76938	850.16180	100.76938
3300.00000	100.61694	845.98074	100.61694
3350.00000	100.95257	846.16773	100.95257
3400.00000	101.08608	843.16565	101.08608
3450.00000	101.35797	841.52886	101.35797
3500.00000	101.46958	840.76298	101.46958
3550.00000	102.29579	839.28830	102.29579
3600.00000	102.37963	834.02805	102.37963
3650.00000	102.52412	834.01092	102.52412
3700.00000	102.74939	831.55927	102.74939
3750.00000	103.34602	828.97608	103.34602
3800.00000	104.03585	826.55924	104.03585
3850.00000	104.51390	818.13697	104.51390
3900.00000	104.90776	811.39711	104.90776
3950.00000	104.10823	807.62283	104.10823
4000.00000	103.65963	809.49479	103.65963
4050.00000	104.15240	811.14217	104.15240
4100.00000	104.88368	811.03713	104.88368
4150.00000	106.50185	807.98759	106.50185
4200.00000	107.35777	802.93275	107.35777
4250.00000	107.48985	790.53538	107.48985
4300.00000	107.58042	786.96260	107.58042
4350.00000	107.95866	782.09742	107.95866
4400.00000	108.26394	776.20163	108.26394
4450.00000	108.34633	768.94682	108.34633
4500.00000	108.42005	762.66036	108.42005
4550.00000	108.27152	757.20190	108.27152
4600.00000	108.29838	751.89361	108.29838
4650.00000	108.29324	747.07477	108.29324
4700.00000	108.20833	742.18725	108.20833
4750.00000	108.16035	737.72725	108.16035
4800.00000	108.13811	733.16992	108.13811
4850.00000	108.15692	728.49586	108.15692
4900.00000	108.12151	723.07765	108.12151
4950.00000	108.05844	718.11334	108.05844
5000.00000	107.95210	712.54904	107.95210
5050.00000	107.76019	706.76073	107.76019
5100.00000	107.50653	701.43196	107.50653
5150.00000	107.14325	695.93267	107.14325
5200.00000	106.49470	691.04064	106.49470
5250.00000	105.64476	691.17620	105.64476
5300.00000	106.15991	691.46833	106.15991
5350.00000	106.41980	685.55255	106.41980
5400.00000	106.20260	679.67848	106.20260
5450.00000	105.84640	675.50819	105.84640
5500.00000	105.52063	671.42299	105.52063
5550.00000	105.23945	667.57225	105.23945
5600.00000	104.92918	663.57898	104.92918
5650.00000	104.51053	660.08848	104.51053
5700.00000	104.09324	657.69395	104.09324
5750.00000	103.77210	654.80626	103.77210
5800.00000	103.39485	652.05024	103.39485
5850.00000	103.06956	649.71341	103.06956
5900.00000	102.74796	647.05077	102.74796
5950.00000	102.50799	645.68482	102.50799
6000.00000	102.15544	642.85014	102.15544
6050.00000	101.80456	640.84698	101.80456
6100.00000	101.52601	638.59011	101.52601
6150.00000	101.33145	636.26019	101.33145
6200.00000	101.01036	635.12853	101.01036
6250.00000	100.69035	633.27094	100.69035
6300.00000	100.33331	632.17092	100.33331
6350.00000	100.16359	629.98077	100.16359
6400.00000	99.81683	627.94899	99.81683
6450.00000	99.64761	629.13198	99.64761
6500.00000	99.36606	627.54502	99.36606
6550.00000	99.19893	629.21893	99.19893
6600.00000	99.13963	627.24628	99.13963
6650.00000	99.19743	626.73577	99.19743
6700.00000	99.37466	625.82035	99.37466
6750.00000	99.33508	623.94693	99.33508
6800.00000	99.30876	623.38655	99.30876
6850.00000	99.33860	619.50060	99.33860
6900.00000	99.11259	616.68281	99.11259
6950.00000	99.19887	615.53413	99.19887
7000.00000	99.05199	611.33842	99.05199
7050.00000	98.71463	611.09128	98.71463
7100.00000	98.53313	606.22160	98.53313
7150.00000	98.15577	606.03139	98.15577
7200.00000	98.16179	603.83305	98.16179
7250.00000	97.76166	602.79130	97.76166
7300.00000	97.50999	603.43753	97.50999
7350.00000	97.28081	601.06208	97.28081
7400.00000	97.01081	602.03033	97.01081
7450.00000	97.06881	602.51973	97.06881
7500.00000	96.92667	602.40441	96.92667
7550.00000	96.56283	605.02267	96.56283
7600.00000	96.88262	604.68261	96.88262
7650.00000	97.00377	606.11931	97.00377
7700.00000	97.50557	603.46420	97.50557
7750.00000	97.24821	604.90973	97.24821
7800.00000	97.77966	606.02658	97.77966
7850.00000	98.17362	601.48900	98.17362
7900.00000	98.13532	599.85385	98.13532
7950.00000	98.51259	598.58804	98.51259
8000.00000	98.72684	598.88432	98.72684
8050.00000	99.06561	595.73235	99.06561
8100.00000	99.16570	591.55400	99.16570
8150.00000	99.09976	591.22493	99.09976
8200.00000	99.85601	590.04945	99.85601
8250.00000	99.76122	585.68610	99.76122
8300.00000	99.78557	584.79793	99.78557
8350.00000	100.03963	581.96331	100.03963
8400.00000	100.12380	579.58697	100.12380
8450.00000	100.52678	577.47297	100.52678
8500.00000	100.36209	573.83531	100.36209
8550.00000	100.54117	572.86684	100.54117
8600.00000	100.84566	568.56814	100.84566
8650.00000	100.83961	565.35441	100.83961
8700.00000	100.94792	564.26531	100.94792
8750.00000	101.10054	559.74777	101.10054
8800.00000	101.06954	557.51321	101.06954
8850.00000	101.28873	553.64738	101.28873
8900.00000	101.26811	550.90628	101.26811
8950.00000	101.25875	549.15266	101.25875
9000.00000	101.38007	544.28388	101.38007
9050.00000	101.20330	541.48756	101.20330
9100.00000	101.39360	538.35475	101.39360
9150.00000	101.15633	535.43000	101.15633
9200.00000	101.10267	533.37150	101.10267
9250.00000	101.17461	528.85955	101.17461
9300.00000	100.91279	525.83311	100.91279
9350.00000	101.06550	524.53248	101.06550
9400.00000	100.89674	521.28618	100.89674
9450.00000	100.90833	518.73110	100.90833
9500.00000	100.93745	514.71289	100.93745
9550.00000	100.62016	511.48040	100.62016
9600.00000	100.59266	512.26360	100.59266
9650.00000	100.73038	507.76915	100.73038
9700.00000	100.44309	504.17860	100.44309
9750.00000	100.37899	502.05050	100.37899
9800.00000	100.31342	499.68900	100.31342
9850.00000	100.12270	499.04568	100.12270
9900.00000	100.34521	495.27852	100.34521
9950.00000	99.95087	491.95109	99.95087
10000.00000	100.04655	492.19418	100.04655
10050.00000	100.12184	489.93238	100.12184
10100.00000	99.88152	487.29986	99.88152
10150.00000	99.90708	485.07368	99.90708
10200.00000	99.74365	482.30085	99.74365
10250.00000	99.71157	482.01710	99.71157
10300.00000	99.73337	480.08057	99.73337
10350.00000	99.69663	477.03929	99.69663
10400.00000	99.63577	475.70793	99.63577
10450.00000	99.79764	472.98543	99.79764
10500.00000	99.74018	471.05577	99.74018
10550.00000	99.87108	468.51845	99.87108
10600.00000	99.92995	464.72224	99.92995
10650.00000	99.90258	463.03493	99.90258
10700.00000	100.07634	460.26560	100.07634
10750.00000	100.00498	456.67550	100.00498
10800.00000	100.09028	453.31249	100.09028
10850.00000	100.17243	449.79343	100.17243
10900.00000	100.15250	446.68174	100.15250
10950.00000	100.16826	443.56257	100.16826
11000.00000	100.27903	439.08920	100.27903
11050.00000	100.10779	435.56811	100.10779
11100.00000	100.14106	432.43002	100.14106
11150.00000	100.05204	428.12178	100.05204
11200.00000	99.89751	424.23712	99.89751
11250.00000	99.75313	420.22950	99.75313
11300.00000	99.47707	416.12434	99.47707
11350.00000	99.17545	412.73722	99.17545
11400.00000	98.95157	408.50021	98.95157
11450.00000	98.65962	404.25143	98.65962
11500.00000	98.28770	400.43804	98.28770
11550.00000	97.90022	396.83141	97.90022
11600.00000	97.48709	393.26338	97.48709
11650.00000	97.13414	390.06042	97.13414
11700.00000	96.81639	386.69652	96.81639
11750.00000	96.28661	383.38138	96.28661
11800.00000	95.87426	380.98610	95.87426
11850.00000	95.57524	378.24937	95.57524
11900.00000	95.08294	376.86365	95.08294
11950.00000	94.70762	375.05317	94.70762
12000.00000	94.33012	373.36319	94.33012
12050.00000	93.84430	372.58503	93.84430
12100.00000	93.41974	372.19958	93.41974
12150.00000	92.97353	370.77576	92.97353
12200.00000	92.57395	369.44330	92.57395
12250.00000	92.13728	368.73358	92.13728
12300.00000	91.50453	367.57290	91.50453
12350.00000	91.06459	367.12056	91.06459
12400.00000	90.62194	365.62581	90.62194
12450.00000	90.29354	364.37106	90.29354
12500.00000	89.86133	364.98812	89.86133
12550.00000	89.45207	364.72882	89.45207
12600.00000	89.22740	362.63338	89.22740
12650.00000	88.91701	363.26145	88.91701
12700.00000	88.52471	362.62888	88.52471
12750.00000	88.10728	363.33953	88.10728
12800.00000	87.85466	363.70732	87.85466
12850.00000	87.59649	364.38703	87.59649
12900.00000	87.19661	363.58662	87.19661
12950.00000	86.98152	363.92220	86.98152
13000.00000	86.69791	362.43920	86.69791
13050.00000	86.39663	361.76181	86.39663
13100.00000	86.18890	360.30105	86.18890
13150.00000	86.31562	360.38256	86.31562
13200.00000	86.33930	356.97138	86.33930
13250.00000	86.78085	353.96237	86.78085
13300.00000	87.39102	356.42371	87.39102
13350.00000	88.25755	356.88637	88.25755
13400.00000	89.31233	361.99484	89.31233
13450.00000	89.98966	373.13603	89.98966
13500.00000	89.41151	388.39128	89.41151
13550.00000	88.16607	396.66345	88.16607
13600.00000	86.47011	400.66933	86.47011
13650.00000	84.89765	399.17611	84.89765
13700.00000	83.40910	396.40163	83.40910
13750.00000	82.62858	389.66436	82.62858
13800.00000	82.41687	384.52451	82.41687
13850.00000	82.36311	376.52434	82.36311
13900.00000	82.63249	368.95273	82.63249
13950.00000	83.43989	364.69180	83.43989
14000.00000	85.03994	362.97760	85.03994
14050.00000	86.95492	363.55456	86.95492
14100.00000	88.81127	369.84103	88.81127
14150.00000	90.43584	383.87221	90.43584
14200.00000	90.52246	400.53412	90.52246
14250.00000	89.38862	414.14692	89.38862
14300.00000	88.13288	420.31627	88.13288
14350.00000	87.00185	420.82817	87.00185
14400.00000	86.44221	419.50769	86.44221
14450.00000	85.96815	415.13732	85.96815
14500.00000	85.83979	412.22160	85.83979
14550.00000	86.20030	405.75358	86.20030
14600.00000	86.57089	402.54441	86.57089
14650.00000	87.40283	398.06831	87.40283
14700.00000	88.35079	394.66686	88.35079
14750.00000	89.49221	391.35665	89.49221
14800.00000	90.85027	389.99164	90.85027
14850.00000	92.07921	390.23660	92.07921
14900.00000	93.62158	391.83270	93.62158
14950.00000	94.35929	395.69720	94.35929
15000.00000	94.98668	399.02135	94.98668
15050.00000	95.14116	402.38806	95.14116
15100.00000	95.17181	402.40347	95.17181
15150.00000	94.99307	400.10431	94.99307
15200.00000	95.04807	396.95935	95.04807
15250.00000	95.00486	392.12752	95.00486
15300.00000	95.17990	386.63046	95.17990
15350.00000	95.60565	381.08446	95.60565
15400.00000	96.04271	374.53213	96.04271
15450.00000	96.47752	368.29694	96.47752
15500.00000	97.20180	363.79985	97.20180
15550.00000	97.75583	359.61844	97.75583
15600.00000	98.35256	356.87222	98.35256
15650.00000	98.93986	353.57173	98.93986
15700.00000	99.14448	352.25057	99.14448
15750.00000	99.34832	350.62292	99.34832
15800.00000	99.29604	349.33202	99.29604
15850.00000	99.27416	347.86057	99.27416
15900.00000	99.02174	344.65236	99.02174
15950.00000	98.81826	341.58423	98.81826
16000.00000	98.74515	337.32581	98.74515
16050.00000	98.76360	333.82663	98.76360
16100.00000	98.66655	330.19606	98.66655
16150.00000	98.93547	326.17680	98.93547
16200.00000	99.08727	323.30089	99.08727
16250.00000	99.27604	320.07851	99.27604
16300.00000	99.50598	317.46903	99.50598
16350.00000	99.78491	315.21397	99.78491
16400.00000	99.86717	313.70688	99.86717
16450.00000	100.02535	312.24104	100.02535
16500.00000	100.06417	310.57515	100.06417
16550.00000	100.02229	308.76198	100.02229
16600.00000	100.04735	306.97755	100.04735
16650.00000	100.03020	304.68883	100.03020
16700.00000	100.11167	301.89570	100.11167
16750.00000	100.12004	299.09712	100.12004
16800.00000	100.22426	296.93571	100.22426
16850.00000	100.41553	293.83178	100.41553
16900.00000	100.57215	292.00784	100.57215
16950.00000	100.69051	289.49806	100.69051
17000.00000	100.85808	287.37626	100.85808
17050.00000	101.01007	285.78308	101.01007
17100.00000	101.18206	284.26828	101.18206
17150.00000	101.27545	282.11697	101.27545
17200.00000	101.35588	279.91664	101.35588
17250.00000	101.46903	277.71726	101.46903
17300.00000	101.57712	275.30977	101.57712
17350.00000	101.65742	272.43701	101.65742
17400.00000	101.80632	269.65124	101.80632
17450.00000	101.96405	267.13079	101.96405
17500.00000	102.07396	264.26412	102.07396
17550.00000	102.22010	261.60259	102.22010
17600.00000	102.39162	259.08476	102.39162
17650.00000	102.55831	256.82288	102.55831
17700.00000	102.66627	254.38827	102.66627
17750.00000	102.82137	252.25419	102.82137
17800.00000	102.90851	249.73967	102.90851
17850.00000	103.05677	247.24353	103.05677
17900.00000	103.15924	244.88297	103.15924
17950.00000	103.24439	242.34531	103.24439
18000.00000	103.35908	239.64182	103.35908
18050.00000	103.49402	236.64147	103.49402
18100.00000	103.63531	234.06111	103.63531
18150.00000	103.74722	231.12243	103.74722
18200.00000	103.85344	228.36856	103.85344
18250.00000	103.99596	225.54806	103.99596
18300.00000	104.08324	222.53895	104.08324
18350.00000	104.22192	219.60612	104.22192
18400.00000	104.29537	216.61281	104.29537
18450.00000	104.40329	213.74970	104.40329
18500.00000	104.51309	210.86173	104.51309
18550.00000	104.61527	207.62633	104.61527
18600.00000	104.64806	204.82912	104.64806
18650.00000	104.75665	201.61973	104.75665
18700.00000	104.80917	198.68780	104.80917
18750.00000	104.88007	195.61245	104.88007
18800.00000	104.90441	192.47704	104.90441
18850.00000	104.95137	189.57272	104.95137
18900.00000	104.92956	186.59479	104.92956
18950.00000	104.96017	183.35732	104.96017
19000.00000	104.95605	180.21665	104.95605
19050.00000	104.96455	177.21342	104.96455
19100.00000	104.95852	174.06581	104.95852
19150.00000	104.96263	171.37888	104.96263
19200.00000	104.93668	168.35554	104.93668
19250.00000	104.90471	165.80229	104.90471
19300.00000	104.90681	162.97512	104.90681
19350.00000	104.88701	160.01831	104.88701
19400.00000	104.81410	157.46894	104.81410
19450.00000	104.79484	154.61703	104.79484
19500.00000	104.77180	152.01845	104.77180
19550.00000	104.75748	149.55609	104.75748
19600.00000	104.72408	146.82427	104.72408
19650.00000	104.69545	144.38159	104.69545
19700.00000	104.68586	141.75375	104.68586
19750.00000	104.66644	139.37833	104.66644
19800.00000	104.65679	137.21894	104.65679
19850.00000	104.62559	134.41437	104.62559
19900.00000	104.63462	132.02038	104.63462
19950.00000	104.62568	129.75498	104.62568
20000.00000	104.60501	127.02190	104.60501
20050.00000	104.59400	124.66843	104.59400
20100.00000	104.62076	122.31133	104.62076
20150.00000	104.61149	119.59361	104.61149
20200.00000	104.63100	117.14227	104.63100
20250.00000	104.63908	114.93651	104.63908
20300.00000	104.65843	112.25890	104.65843
20350.00000	104.66421	109.96591	104.66421
20400.00000	104.66874	107.33841	104.66874
20450.00000	104.67423	104.64713	104.67423
20500.00000	104.69729	101.99443	104.69729
20550.00000	104.66765	99.29424	104.66765
20600.00000	104.65008	96.58684	104.65008
20650.00000	104.68499	94.02980	104.68499
20700.00000	104.67758	91.61436	104.67758
20750.00000	104.65531	88.95022	104.65531
20800.00000	104.62604	86.18694	104.62604
20850.00000	104.60305	83.47687	104.60305
20900.00000	104.57492	80.84594	104.57492
20950.00000	104.55002	78.12282	104.55002
21000.00000	104.54528	75.26335	104.54528
21050.00000	104.50521	72.69160	104.50521
21100.00000	104.47362	70.17435	104.47362
21150.00000	104.45273	67.50740	104.45273
21200.00000	104.38968	64.92801	104.38968
21250.00000	104.29506	62.19375	104.29506
21300.00000	104.23844	59.35240	104.23844
21350.00000	104.15920	56.87279	104.15920
21400.00000	104.10217	54.01278	104.10217
21450.00000	104.06113	51.71462	104.06113
21500.00000	104.01714	49.22073	104.01714
21550.00000	103.93084	46.85586	103.93084
21600.00000	103.85241	44.13015	103.85241
21650.00000	103.75937	41.95718	103.75937
21700.00000	103.63695	39.18176	103.63695
21750.00000	103.55537	36.83930	103.55537
21800.00000	103.47071	34.27539	103.47071
21850.00000	103.39145	32.16690	103.39145
21900.00000	103.26457	29.95010	103.26457
21950.00000	103.15611	27.70342	103.15611
22000.00000	103.00144	25.85297	103.00144
22050.00000	102.87080	24.05107	102.87080
22100.00000	102.80824	22.58676	102.80824
22150.00000	102.75847	20.76456	102.75847
22200.00000	102.71736	18.79825	102.71736
22250.00000	102.66325	16.95252	102.66325
22300.00000	102.62936	14.94908	102.62936
22350.00000	102.57772	13.10980	102.57772
22400.00000	102.57130	11.28852	102.57130
22450.00000	102.58767	 9.56404	102.58767
22500.00000	102.51075	 7.76307	102.51075
22550.00000	102.50417	 5.83143	102.50417
22600.00000	102.50614	 4.00793	102.50614
22650.00000	102.50439	 2.30036	102.50439
22700.00000	102.50997	 0.42687	102.50997
22750.00000	102.53144	-1.58323	102.53144
22800.00000	102.53805	-3.53457	102.53805
22850.00000	102.54346	-5.50859	102.54346
22900.00000	102.60071	-7.26505	102.60071
22950.00000	102.66481	-9.36385	102.66481
23000.00000	102.67249	-11.34123	102.67249
23050.00000	102.70389	-13.42666	102.70389
23100.00000	102.73693	-15.70850	102.73693
23150.00000	102.71365	-17.84916	102.71365
23200.00000	102.74631	-20.35864	102.74631
23250.00000	102.82456	-22.75129	102.82456
23300.00000	102.93914	-25.50711	102.93914
23350.00000	102.89583	-27.26109	102.89583
