---ACOUSTIC CALIBRATION---
Filename: C:\Data\CL0809 DATA\CL08094\RightPrimary.calib
Date: 8/9/2019 2:30:09 PM
Format: 4
Probe Tube Correction File: C:\Data\Probe Tube Calibrations\74_ProbeTube.calib
Experiment VIs: 2128
EPL_CFTS.exe V15.0.1f5 (2015)
DAQmx V15.1

Attenuation (dB): 40.000000
Min Freq (Hz): 50.000000
Max Freq (Hz): 99950.000000
Freq Step (Hz): 50.000000
Sample Rate (Hz): 200000.000000
[Smoothing]
Method=None
MA.Iterations=0
MA.Length=0
Loess.Length=0
Loess.Type=Linear
Loess.Robust=FALSE


Freq(Hz)	Mag(dB)	Phase(deg)	Unsmoothed(dB)

50.00000	94.32374	216.38908	94.32374
100.00000	64.13072	121.94978	64.13072
150.00000	73.16152	235.44096	73.16152
200.00000	65.19993	228.35704	65.19993
250.00000	55.00260	289.35489	55.00260
300.00000	63.63146	479.09330	63.63146
350.00000	59.85058	635.55876	59.85058
400.00000	56.53496	744.39719	56.53496
450.00000	60.42434	718.36850	60.42434
500.00000	61.39222	855.68798	61.39222
550.00000	68.60502	809.60544	68.60502
600.00000	70.34027	774.66695	70.34027
650.00000	75.65073	766.27657	75.65073
700.00000	74.87058	763.60781	74.87058
750.00000	77.47135	730.62540	77.47135
800.00000	78.92178	718.56546	78.92178
850.00000	77.72245	714.92202	77.72245
900.00000	78.22761	722.07551	78.22761
950.00000	81.10645	723.55823	81.10645
1000.00000	83.37647	724.38714	83.37647
1050.00000	86.48201	715.34268	86.48201
1100.00000	88.93262	698.69454	88.93262
1150.00000	89.94511	683.81327	89.94511
1200.00000	90.33750	674.66284	90.33750
1250.00000	91.39458	666.99098	91.39458
1300.00000	92.86060	659.11241	92.86060
1350.00000	94.06567	645.81346	94.06567
1400.00000	94.33795	632.22937	94.33795
1450.00000	94.26342	622.69402	94.26342
1500.00000	94.35188	616.30552	94.35188
1550.00000	94.46100	609.36769	94.46100
1600.00000	95.15123	606.07271	95.15123
1650.00000	95.87864	602.70743	95.87864
1700.00000	99.64477	586.57752	99.64477
1750.00000	96.57458	567.01366	96.57458
1800.00000	96.28296	562.24749	96.28296
1850.00000	95.93729	554.88883	95.93729
1900.00000	95.74036	548.60509	95.74036
1950.00000	95.13727	544.57395	95.13727
2000.00000	94.87595	542.59574	94.87595
2050.00000	95.27983	539.94694	95.27983
2100.00000	95.67041	534.29725	95.67041
2150.00000	95.99833	526.23732	95.99833
2200.00000	95.63391	515.81734	95.63391
2250.00000	94.70259	510.69649	94.70259
2300.00000	94.47043	509.32605	94.47043
2350.00000	94.56117	503.90958	94.56117
2400.00000	94.50042	497.90913	94.50042
2450.00000	93.94132	490.07819	93.94132
2500.00000	93.06023	487.36371	93.06023
2550.00000	92.76911	484.72683	92.76911
2600.00000	92.38312	481.51623	92.38312
2650.00000	91.89310	478.97627	91.89310
2700.00000	91.55405	475.63065	91.55405
2750.00000	91.10487	473.46014	91.10487
2800.00000	90.73101	470.80858	90.73101
2850.00000	90.33902	468.88646	90.33902
2900.00000	90.06811	466.80877	90.06811
2950.00000	89.78196	465.02598	89.78196
3000.00000	89.49584	463.50436	89.49584
3050.00000	89.27624	461.02137	89.27624
3100.00000	88.86616	458.53852	88.86616
3150.00000	88.20564	456.71098	88.20564
3200.00000	87.84417	455.29176	87.84417
3250.00000	87.43106	454.07354	87.43106
3300.00000	86.85509	452.76337	86.85509
3350.00000	86.49789	452.36249	86.49789
3400.00000	85.93846	451.45579	85.93846
3450.00000	85.30000	450.30843	85.30000
3500.00000	84.54998	450.45286	84.54998
3550.00000	83.88220	449.65057	83.88220
3600.00000	82.52993	449.76515	82.52993
3650.00000	81.21639	455.86669	81.21639
3700.00000	79.68667	464.01676	79.68667
3750.00000	78.82075	475.11753	78.82075
3800.00000	78.91516	492.01009	78.91516
3850.00000	79.94365	501.05924	79.94365
3900.00000	81.09926	508.48757	81.09926
3950.00000	81.79624	517.16425	81.79624
4000.00000	82.61136	527.88530	82.61136
4050.00000	84.30329	533.64280	84.30329
4100.00000	86.06244	537.79666	86.06244
4150.00000	88.51733	538.93436	88.51733
4200.00000	90.31451	538.28569	90.31451
4250.00000	91.27916	529.11082	91.27916
4300.00000	92.19340	529.39685	92.19340
4350.00000	93.52081	527.78344	93.52081
4400.00000	94.81293	523.86499	94.81293
4450.00000	95.78242	517.28237	95.78242
4500.00000	96.46518	511.16443	96.46518
4550.00000	96.68952	506.98492	96.68952
4600.00000	97.13328	505.31463	97.13328
4650.00000	97.77057	505.28352	97.77057
4700.00000	98.66789	504.42791	98.66789
4750.00000	99.75896	502.68079	99.75896
4800.00000	100.91237	499.72846	100.91237
4850.00000	102.03650	495.59879	102.03650
4900.00000	103.15385	490.69859	103.15385
4950.00000	104.30171	485.77687	104.30171
5000.00000	105.53635	479.90417	105.53635
5050.00000	106.90026	473.18055	106.90026
5100.00000	108.47586	464.92056	108.47586
5150.00000	110.41160	453.65579	110.41160
5200.00000	112.79259	434.51651	112.79259
5250.00000	114.35641	397.29357	114.35641
5300.00000	111.00589	354.35345	111.00589
5350.00000	105.17847	339.28871	105.17847
5400.00000	100.63962	344.68151	100.63962
5450.00000	97.82210	354.16182	97.82210
5500.00000	95.25048	366.38727	95.25048
5550.00000	93.76695	389.64776	93.76695
5600.00000	95.11858	411.55505	95.11858
5650.00000	97.44332	419.65488	97.44332
5700.00000	99.25403	418.47220	99.25403
5750.00000	100.27300	414.73295	100.27300
5800.00000	100.75983	412.42672	100.75983
5850.00000	101.19708	411.57123	101.19708
5900.00000	101.72833	411.20254	101.72833
5950.00000	102.38743	411.05779	102.38743
6000.00000	103.13373	410.54791	103.13373
6050.00000	103.95710	409.34691	103.95710
6100.00000	104.82261	407.67254	104.82261
6150.00000	105.69481	405.20687	105.69481
6200.00000	106.60754	402.53823	106.60754
6250.00000	107.56188	399.14042	107.56188
6300.00000	108.56178	395.05492	108.56178
6350.00000	109.59482	390.12624	109.59482
6400.00000	110.64988	384.15567	110.64988
6450.00000	111.67021	376.86817	111.67021
6500.00000	112.59417	368.21626	112.59417
6550.00000	113.38123	358.26623	113.38123
6600.00000	113.90521	347.46246	113.90521
6650.00000	114.16300	336.56897	114.16300
6700.00000	114.21323	326.02598	114.21323
6750.00000	114.10122	316.08818	114.10122
6800.00000	113.87171	306.64723	113.87171
6850.00000	113.50595	297.77653	113.50595
6900.00000	113.03989	289.76464	113.03989
6950.00000	112.51222	282.73604	112.51222
7000.00000	111.98528	276.60969	111.98528
7050.00000	111.49030	271.21106	111.49030
7100.00000	111.03449	266.21751	111.03449
7150.00000	110.60247	261.62151	110.60247
7200.00000	110.21138	257.23631	110.21138
7250.00000	109.84114	253.12825	109.84114
7300.00000	109.49477	249.06622	109.49477
7350.00000	109.18315	245.06153	109.18315
7400.00000	108.85240	241.06500	108.85240
7450.00000	108.53172	237.11321	108.53172
7500.00000	108.20227	233.31376	108.20227
7550.00000	107.86427	229.57972	107.86427
7600.00000	107.51842	225.99325	107.51842
7650.00000	107.16954	222.48088	107.16954
7700.00000	106.82204	219.24211	106.82204
7750.00000	106.45486	216.18680	106.45486
7800.00000	106.11027	213.49022	106.11027
7850.00000	105.80222	210.82614	105.80222
7900.00000	105.48210	208.15185	105.48210
7950.00000	105.19305	205.92288	105.19305
8000.00000	104.91606	203.76604	104.91606
8050.00000	104.64630	201.80480	104.64630
8100.00000	104.42833	199.73409	104.42833
8150.00000	104.25178	197.89769	104.25178
8200.00000	104.09222	195.79150	104.09222
8250.00000	103.94868	193.88650	103.94868
8300.00000	103.82482	191.80955	103.82482
8350.00000	103.74366	189.62257	103.74366
8400.00000	103.64210	187.42271	103.64210
8450.00000	103.55855	185.23454	103.55855
8500.00000	103.49170	182.92474	103.49170
8550.00000	103.43176	180.51897	103.43176
8600.00000	103.37811	177.99566	103.37811
8650.00000	103.32147	175.48434	103.32147
8700.00000	103.26025	172.80644	103.26025
8750.00000	103.20426	170.16107	103.20426
8800.00000	103.14557	167.30175	103.14557
8850.00000	103.11983	164.30389	103.11983
8900.00000	103.01929	161.44789	103.01929
8950.00000	102.93882	158.62779	102.93882
9000.00000	102.83300	155.54914	102.83300
9050.00000	102.74919	152.64655	102.74919
9100.00000	102.66502	149.75601	102.66502
9150.00000	102.57367	146.84285	102.57367
9200.00000	102.46952	143.77454	102.46952
9250.00000	102.29537	140.88395	102.29537
9300.00000	102.22302	138.06898	102.22302
9350.00000	102.11641	135.05033	102.11641
9400.00000	101.96531	131.93522	101.96531
9450.00000	101.84835	128.97918	101.84835
9500.00000	101.71503	125.98306	101.71503
9550.00000	101.52531	122.96931	101.52531
9600.00000	101.37198	120.28308	101.37198
9650.00000	101.25610	117.47901	101.25610
9700.00000	101.04570	114.47397	101.04570
9750.00000	100.84001	111.68846	100.84001
9800.00000	100.56473	108.88570	100.56473
9850.00000	100.20367	106.54690	100.20367
9900.00000	99.81196	105.41300	99.81196
9950.00000	99.39810	106.08191	99.39810
10000.00000	99.51276	108.92677	99.51276
10050.00000	100.22685	108.73512	100.22685
10100.00000	100.74661	104.69024	100.74661
10150.00000	100.93167	99.77677	100.93167
10200.00000	100.94136	95.59195	100.94136
10250.00000	100.92089	91.95225	100.92089
10300.00000	100.90437	88.29919	100.90437
10350.00000	100.85155	84.92805	100.85155
10400.00000	100.77792	81.49206	100.77792
10450.00000	100.75952	77.97110	100.75952
10500.00000	100.76747	74.34494	100.76747
10550.00000	100.71545	70.94326	100.71545
10600.00000	100.76871	66.98699	100.76871
10650.00000	100.73870	63.40274	100.73870
10700.00000	100.72087	59.14155	100.72087
10750.00000	100.66146	55.07208	100.66146
10800.00000	100.62564	50.71059	100.62564
10850.00000	100.59477	46.49304	100.59477
10900.00000	100.55311	42.13808	100.55311
10950.00000	100.44404	37.48280	100.44404
11000.00000	100.38543	32.88507	100.38543
11050.00000	100.23316	28.25133	100.23316
11100.00000	100.10891	23.35609	100.10891
11150.00000	99.92739	18.14830	99.92739
11200.00000	99.72742	13.17622	99.72742
11250.00000	99.40925	 7.82117	99.40925
11300.00000	99.11573	 2.81183	99.11573
11350.00000	98.79479	-2.34838	98.79479
11400.00000	98.39563	-7.67665	98.39563
11450.00000	97.99166	-12.73180	97.99166
11500.00000	97.57067	-17.82123	97.57067
11550.00000	97.08594	-22.84584	97.08594
11600.00000	96.59604	-27.75766	96.59604
11650.00000	96.07527	-32.54060	96.07527
11700.00000	95.58744	-37.40896	95.58744
11750.00000	95.04404	-42.02756	95.04404
11800.00000	94.53987	-46.30504	94.53987
11850.00000	94.02201	-50.96798	94.02201
11900.00000	93.36679	-54.76105	93.36679
11950.00000	92.82803	-58.85187	92.82803
12000.00000	92.30918	-62.32152	92.30918
12050.00000	91.71334	-65.83395	91.71334
12100.00000	91.02162	-69.43835	91.02162
12150.00000	90.48288	-72.57861	90.48288
12200.00000	89.89283	-76.65731	89.89283
12250.00000	89.29591	-79.89744	89.29591
12300.00000	88.46445	-83.45096	88.46445
12350.00000	87.84532	-87.13493	87.84532
12400.00000	87.08212	-91.19163	87.08212
12450.00000	86.60878	-94.67857	86.60878
12500.00000	86.03127	-98.09603	86.03127
12550.00000	85.36112	-101.29436	85.36112
12600.00000	84.89799	-106.06919	84.89799
12650.00000	84.20901	-110.12028	84.20901
12700.00000	83.49775	-113.98979	83.49775
12750.00000	82.97831	-117.73743	82.97831
12800.00000	82.47886	-122.08364	82.47886
12850.00000	81.92148	-125.46914	81.92148
12900.00000	81.36659	-131.10963	81.36659
12950.00000	81.04635	-134.97969	81.04635
13000.00000	80.68255	-140.88603	80.68255
13050.00000	80.21921	-144.66565	80.21921
13100.00000	80.06175	-151.41852	80.06175
13150.00000	80.25971	-156.97322	80.25971
13200.00000	80.54872	-164.25987	80.54872
13250.00000	80.88728	-172.09953	80.88728
13300.00000	81.74310	-175.39754	81.74310
13350.00000	82.91646	-179.45849	82.91646
13400.00000	84.47757	-178.83934	84.47757
13450.00000	85.33633	-172.40953	85.33633
13500.00000	85.44135	-164.33912	85.44135
13550.00000	84.75910	-159.13196	84.75910
13600.00000	83.70259	-160.01556	83.70259
13650.00000	82.42014	-165.41943	82.42014
13700.00000	81.78936	-171.20145	81.78936
13750.00000	81.35460	-181.46096	81.35460
13800.00000	81.64150	-190.50000	81.64150
13850.00000	82.33935	-203.19288	82.33935
13900.00000	83.10821	-212.81179	83.10821
13950.00000	84.51497	-222.38460	84.51497
14000.00000	86.23260	-229.40380	86.23260
14050.00000	88.66400	-231.63015	88.66400
14100.00000	91.13893	-231.89197	91.13893
14150.00000	93.11751	-222.86197	93.11751
14200.00000	93.62463	-210.41306	93.62463
14250.00000	92.92809	-201.78949	92.92809
14300.00000	91.86302	-200.93803	91.86302
14350.00000	91.11830	-205.57049	91.11830
14400.00000	90.56094	-210.86204	90.56094
14450.00000	90.46410	-218.65920	90.46410
14500.00000	90.46373	-226.85000	90.46373
14550.00000	90.87445	-235.57988	90.87445
14600.00000	91.41415	-242.21747	91.41415
14650.00000	92.26328	-249.78505	92.26328
14700.00000	93.22990	-257.77104	93.22990
14750.00000	94.42094	-264.15800	94.42094
14800.00000	95.65082	-268.31092	95.65082
14850.00000	97.02402	-271.28300	97.02402
14900.00000	98.40305	-272.43332	98.40305
14950.00000	99.30419	-271.71773	99.30419
15000.00000	99.80790	-271.10371	99.80790
15050.00000	99.88507	-270.22663	99.88507
15100.00000	99.89732	-272.86799	99.89732
15150.00000	99.78409	-277.22401	99.78409
15200.00000	99.74395	-282.22659	99.74395
15250.00000	99.63066	-288.67256	99.63066
15300.00000	99.71848	-296.23989	99.71848
15350.00000	99.99701	-303.62390	99.99701
15400.00000	100.32689	-311.12273	100.32689
15450.00000	100.76575	-318.82480	100.76575
15500.00000	101.29491	-325.52673	101.29491
15550.00000	101.78319	-330.62539	101.78319
15600.00000	102.30747	-335.58775	102.30747
15650.00000	102.78893	-339.62879	102.78893
15700.00000	102.95417	-342.11725	102.95417
15750.00000	103.16348	-344.80416	103.16348
15800.00000	103.09941	-347.23207	103.09941
15850.00000	103.03608	-349.94845	103.03608
15900.00000	102.77884	-354.03601	102.77884
15950.00000	102.53982	-358.50090	102.53982
16000.00000	102.40514	-362.99529	102.40514
16050.00000	102.39622	-368.02410	102.39622
16100.00000	102.32462	-372.52463	102.32462
16150.00000	102.39381	-377.56417	102.39381
16200.00000	102.47883	-381.55449	102.47883
16250.00000	102.63902	-385.98690	102.63902
16300.00000	102.83602	-389.25390	102.83602
16350.00000	103.00640	-392.47421	103.00640
16400.00000	103.05173	-394.74131	103.05173
16450.00000	103.14015	-397.08219	103.14015
16500.00000	103.14933	-399.64921	103.14933
16550.00000	103.05234	-402.27147	103.05234
16600.00000	102.98934	-405.24740	102.98934
16650.00000	102.91577	-407.94089	102.91577
16700.00000	102.87165	-411.45818	102.87165
16750.00000	102.87287	-414.73960	102.87287
16800.00000	102.88120	-418.06871	102.88120
16850.00000	103.01151	-421.63750	103.01151
16900.00000	103.07804	-424.43538	103.07804
16950.00000	103.12749	-427.45595	103.12749
17000.00000	103.21015	-430.05435	103.21015
17050.00000	103.30801	-432.43180	103.30801
17100.00000	103.41138	-434.86865	103.41138
17150.00000	103.43806	-437.41686	103.43806
17200.00000	103.40963	-439.84872	103.40963
17250.00000	103.42524	-442.59841	103.42524
17300.00000	103.45279	-445.59230	103.45279
17350.00000	103.50377	-448.72532	103.50377
17400.00000	103.55913	-451.70995	103.55913
17450.00000	103.58364	-454.71895	103.58364
17500.00000	103.65074	-457.65223	103.65074
17550.00000	103.73095	-460.68480	103.73095
17600.00000	103.82339	-463.38177	103.82339
17650.00000	103.93473	-465.99337	103.93473
17700.00000	104.00789	-468.67849	104.00789
17750.00000	104.04865	-471.17436	104.04865
17800.00000	104.10192	-474.01649	104.10192
17850.00000	104.15325	-476.60160	104.15325
17900.00000	104.23322	-479.29615	104.23322
17950.00000	104.27448	-482.21932	104.27448
18000.00000	104.33323	-485.09369	104.33323
18050.00000	104.39548	-488.02848	104.39548
18100.00000	104.46768	-491.18992	104.46768
18150.00000	104.54718	-494.30049	104.54718
18200.00000	104.60947	-497.37106	104.60947
18250.00000	104.67237	-500.63098	104.67237
18300.00000	104.72390	-503.58924	104.72390
18350.00000	104.77958	-506.63239	104.77958
18400.00000	104.81415	-509.76843	104.81415
18450.00000	104.85954	-512.86721	104.85954
18500.00000	104.90574	-516.01461	104.90574
18550.00000	104.94244	-519.30485	104.94244
18600.00000	104.93360	-522.48461	104.93360
18650.00000	104.96248	-525.80863	104.96248
18700.00000	104.99521	-528.77685	104.99521
18750.00000	104.97147	-531.97984	104.97147
18800.00000	104.97615	-535.16969	104.97615
18850.00000	104.94602	-538.20076	104.94602
18900.00000	104.88323	-541.23449	104.88323
18950.00000	104.87327	-544.54371	104.87327
19000.00000	104.79831	-547.65916	104.79831
19050.00000	104.74871	-550.80113	104.74871
19100.00000	104.72109	-553.94795	104.72109
19150.00000	104.64354	-556.68920	104.64354
19200.00000	104.59916	-559.76205	104.59916
19250.00000	104.51834	-562.43179	104.51834
19300.00000	104.49495	-565.24692	104.49495
19350.00000	104.43944	-568.11137	104.43944
19400.00000	104.35643	-570.70467	104.35643
19450.00000	104.27145	-573.63555	104.27145
19500.00000	104.23503	-576.26353	104.23503
19550.00000	104.16697	-578.92271	104.16697
19600.00000	104.09581	-581.68049	104.09581
19650.00000	104.02150	-584.13450	104.02150
19700.00000	103.96773	-586.85444	103.96773
19750.00000	103.92008	-589.28703	103.92008
19800.00000	103.86920	-591.51008	103.86920
19850.00000	103.80991	-594.23983	103.80991
19900.00000	103.77447	-596.76016	103.77447
19950.00000	103.70430	-598.98104	103.70430
20000.00000	103.64055	-601.87761	103.64055
20050.00000	103.57602	-604.21266	103.57602
20100.00000	103.56436	-606.59888	103.56436
20150.00000	103.51786	-609.45702	103.51786
20200.00000	103.48329	-611.70812	103.48329
20250.00000	103.43267	-613.87274	103.43267
20300.00000	103.38473	-616.36304	103.38473
20350.00000	103.35290	-618.79010	103.35290
20400.00000	103.31076	-621.08823	103.31076
20450.00000	103.26545	-623.41253	103.26545
20500.00000	103.24962	-626.05189	103.24962
20550.00000	103.20500	-628.51860	103.20500
20600.00000	103.14499	-630.84585	103.14499
20650.00000	103.15440	-633.31285	103.15440
20700.00000	103.12689	-635.55446	103.12689
20750.00000	103.06574	-637.84574	103.06574
20800.00000	103.05132	-640.31806	103.05132
20850.00000	103.00287	-642.81155	103.00287
20900.00000	102.95555	-644.93666	102.95555
20950.00000	102.94468	-647.60097	102.94468
21000.00000	102.94254	-650.22582	102.94254
21050.00000	102.92434	-652.37953	102.92434
21100.00000	102.91605	-655.04287	102.91605
21150.00000	102.88321	-657.28169	102.88321
21200.00000	102.85215	-659.68107	102.85215
21250.00000	102.80508	-661.95571	102.80508
21300.00000	102.79025	-664.66024	102.79025
21350.00000	102.75128	-666.93067	102.75128
21400.00000	102.71404	-669.52671	102.71404
21450.00000	102.74058	-671.95498	102.74058
21500.00000	102.76249	-674.30663	102.76249
21550.00000	102.73938	-676.66993	102.73938
21600.00000	102.73637	-679.31261	102.73637
21650.00000	102.73605	-681.80921	102.73605
21700.00000	102.65310	-684.90837	102.65310
21750.00000	102.66428	-687.38002	102.66428
21800.00000	102.63624	-690.11724	102.63624
21850.00000	102.60986	-692.96105	102.60986
21900.00000	102.55394	-695.40677	102.55394
21950.00000	102.50303	-698.21055	102.50303
22000.00000	102.37728	-700.97854	102.37728
22050.00000	102.33144	-703.27052	102.33144
22100.00000	102.25772	-705.58863	102.25772
22150.00000	102.21804	-708.03998	102.21804
22200.00000	102.14386	-710.70836	102.14386
22250.00000	102.12639	-713.20664	102.12639
22300.00000	102.04968	-715.64425	102.04968
22350.00000	101.96307	-718.20764	101.96307
22400.00000	101.86969	-720.93707	101.86969
22450.00000	101.82107	-723.25453	101.82107
22500.00000	101.72041	-726.04871	101.72041
22550.00000	101.65526	-728.31358	101.65526
22600.00000	101.57611	-730.72495	101.57611
22650.00000	101.43992	-732.79218	101.43992
22700.00000	101.36225	-735.13913	101.36225
22750.00000	101.30821	-737.63318	101.30821
22800.00000	101.24325	-739.89769	101.24325
22850.00000	101.12581	-742.12359	101.12581
22900.00000	101.10032	-744.05348	101.10032
22950.00000	101.03004	-746.27612	101.03004
23000.00000	100.95787	-748.32792	100.95787
23050.00000	100.88261	-750.95233	100.88261
