---ACOUSTIC CALIBRATION---
Filename: C:\Data\CL0809 DATA\CL08092\RightSecondary.calib
Date: 8/9/2019 10:57:57 AM
Format: 4
Probe Tube Correction File: C:\Data\Probe Tube Calibrations\74_ProbeTube.calib
Experiment VIs: 2128
EPL_CFTS.exe V15.0.1f5 (2015)
DAQmx V15.1

Attenuation (dB): 40.000000
Min Freq (Hz): 50.000000
Max Freq (Hz): 99950.000000
Freq Step (Hz): 50.000000
Sample Rate (Hz): 200000.000000
[Smoothing]
Method=None
MA.Iterations=0
MA.Length=0
Loess.Length=0
Loess.Type=Linear
Loess.Robust=FALSE


Freq(Hz)	Mag(dB)	Phase(deg)	Unsmoothed(dB)

50.00000	92.46745	323.61293	92.46745
100.00000	71.96244	146.68640	71.96244
150.00000	63.05988	387.48996	63.05988
200.00000	65.36000	467.11663	65.36000
250.00000	65.67742	603.84695	65.67742
300.00000	67.10709	806.05865	67.10709
350.00000	73.41510	972.92381	73.41510
400.00000	72.00713	1028.11524	72.00713
450.00000	77.07280	1079.92219	77.07280
500.00000	82.74835	1191.08960	82.74835
550.00000	88.14612	1116.48794	88.14612
600.00000	86.94299	1082.44680	86.94299
650.00000	93.94074	1067.60367	93.94074
700.00000	92.40753	1067.97654	92.40753
750.00000	96.24662	1035.00031	96.24662
800.00000	97.14839	1018.34288	97.14839
850.00000	96.04997	1010.73060	96.04997
900.00000	96.77533	1006.96414	96.77533
950.00000	98.20499	992.36258	98.20499
1000.00000	98.28383	986.16165	98.28383
1050.00000	98.32750	971.06443	98.32750
1100.00000	97.44112	962.08955	97.44112
1150.00000	96.49243	962.06653	96.49243
1200.00000	96.08620	966.89897	96.08620
1250.00000	96.81480	971.45528	96.81480
1300.00000	97.88193	971.48979	97.88193
1350.00000	98.67637	969.77930	98.67637
1400.00000	99.56395	969.94299	99.56395
1450.00000	100.60577	968.29444	100.60577
1500.00000	101.92106	966.27554	101.92106
1550.00000	103.33138	960.04163	103.33138
1600.00000	104.61785	954.37793	104.61785
1650.00000	105.64996	949.04392	105.64996
1700.00000	109.62010	932.06882	109.62010
1750.00000	106.61157	911.05064	106.61157
1800.00000	106.24744	905.36365	106.24744
1850.00000	105.78629	897.78275	105.78629
1900.00000	105.48957	891.79456	105.48957
1950.00000	104.77521	886.67284	104.77521
2000.00000	103.94758	882.56740	103.94758
2050.00000	102.94519	883.59150	102.94519
2100.00000	103.19762	890.80672	103.19762
2150.00000	104.49443	887.70173	104.49443
2200.00000	104.79723	878.60533	104.79723
2250.00000	104.22767	873.33891	104.22767
2300.00000	103.90879	872.22876	103.90879
2350.00000	103.94242	869.64300	103.94242
2400.00000	104.02519	867.59394	104.02519
2450.00000	103.80823	863.48610	103.80823
2500.00000	103.34685	863.95886	103.34685
2550.00000	103.55468	863.88256	103.55468
2600.00000	103.73712	862.97788	103.73712
2650.00000	103.90298	862.54267	103.90298
2700.00000	104.16489	860.74461	104.16489
2750.00000	104.40209	859.31647	104.40209
2800.00000	104.69615	856.90370	104.69615
2850.00000	104.99931	854.81294	104.99931
2900.00000	105.32101	852.39945	105.32101
2950.00000	105.62765	849.78774	105.62765
3000.00000	105.89689	847.37403	105.89689
3050.00000	106.15039	844.15396	106.15039
3100.00000	106.38259	840.85342	106.38259
3150.00000	106.39976	838.04231	106.39976
3200.00000	106.58573	834.81153	106.58573
3250.00000	106.81424	832.31209	106.81424
3300.00000	106.84788	829.56400	106.84788
3350.00000	107.06843	827.38904	107.06843
3400.00000	107.14567	825.11572	107.14567
3450.00000	107.26852	823.72436	107.26852
3500.00000	107.42866	822.64873	107.42866
3550.00000	108.10199	820.24156	108.10199
3600.00000	108.16332	816.26147	108.16332
3650.00000	108.44923	815.46469	108.44923
3700.00000	108.67965	813.38513	108.67965
3750.00000	109.17045	810.02196	109.17045
3800.00000	109.94892	807.68404	109.94892
3850.00000	110.44106	797.93179	110.44106
3900.00000	110.73445	789.80224	110.73445
3950.00000	109.82879	786.02620	109.82879
4000.00000	109.32348	787.19379	109.32348
4050.00000	109.58937	788.19579	109.58937
4100.00000	110.13093	788.20529	110.13093
4150.00000	111.58584	785.24394	111.58584
4200.00000	112.39538	780.66316	112.39538
4250.00000	112.36404	768.22471	112.36404
4300.00000	112.35243	765.37159	112.35243
4350.00000	112.64248	760.71317	112.64248
4400.00000	112.84841	754.76079	112.84841
4450.00000	112.81668	748.08304	112.81668
4500.00000	112.82028	742.31922	112.82028
4550.00000	112.60798	737.35958	112.60798
4600.00000	112.53493	732.38430	112.53493
4650.00000	112.44683	728.03946	112.44683
4700.00000	112.32645	723.68811	112.32645
4750.00000	112.21510	719.59655	112.21510
4800.00000	112.14160	715.81206	112.14160
4850.00000	112.08480	711.76046	112.08480
4900.00000	112.03876	707.06932	112.03876
4950.00000	111.96340	702.69053	111.96340
5000.00000	111.84543	697.91218	111.84543
5050.00000	111.69312	693.15844	111.69312
5100.00000	111.48000	688.37144	111.48000
5150.00000	111.18283	683.65556	111.18283
5200.00000	110.73455	679.05641	110.73455
5250.00000	109.98059	676.99139	109.98059
5300.00000	110.12745	678.75117	110.12745
5350.00000	110.46465	673.76175	110.46465
5400.00000	110.30973	668.47115	110.30973
5450.00000	110.01207	664.30728	110.01207
5500.00000	109.74152	660.53900	109.74152
5550.00000	109.51246	657.27806	109.51246
5600.00000	109.25844	653.40750	109.25844
5650.00000	108.90082	650.34720	108.90082
5700.00000	108.58912	647.33424	108.58912
5750.00000	108.31648	644.46894	108.31648
5800.00000	108.03060	642.04249	108.03060
5850.00000	107.73533	639.56540	107.73533
5900.00000	107.47050	637.07921	107.47050
5950.00000	107.23656	634.88439	107.23656
6000.00000	107.01664	632.61669	107.01664
6050.00000	106.80124	630.16103	106.80124
6100.00000	106.57679	627.67216	106.57679
6150.00000	106.30100	625.22237	106.30100
6200.00000	106.03285	623.17500	106.03285
6250.00000	105.77093	621.20095	105.77093
6300.00000	105.52876	619.39462	105.52876
6350.00000	105.31127	617.64349	105.31127
6400.00000	105.09875	615.94076	105.09875
6450.00000	104.89994	614.28466	104.89994
6500.00000	104.68728	612.78525	104.68728
6550.00000	104.48308	611.51208	104.48308
6600.00000	104.35045	610.42573	104.35045
6650.00000	104.26461	609.49539	104.26461
6700.00000	104.24464	608.31295	104.24464
6750.00000	104.28710	606.74963	104.28710
6800.00000	104.35675	604.72785	104.35675
6850.00000	104.39828	602.11003	104.39828
6900.00000	104.36741	599.15215	104.36741
6950.00000	104.31433	595.87505	104.31433
7000.00000	104.17266	592.63337	104.17266
7050.00000	103.99798	589.64021	103.99798
7100.00000	103.76785	586.60555	103.76785
7150.00000	103.48916	583.82145	103.48916
7200.00000	103.18931	581.19721	103.18931
7250.00000	102.85699	579.12002	102.85699
7300.00000	102.49483	577.27697	102.49483
7350.00000	102.14342	575.79208	102.14342
7400.00000	101.82674	574.92080	101.82674
7450.00000	101.52653	574.13416	101.52653
7500.00000	101.29458	573.89632	101.29458
7550.00000	101.14663	573.74270	101.14663
7600.00000	101.04402	573.29545	101.04402
7650.00000	101.04554	572.74247	101.04554
7700.00000	101.03778	571.85511	101.03778
7750.00000	101.04637	570.56203	101.04637
7800.00000	101.04385	568.84912	101.04385
7850.00000	101.02442	567.27990	101.02442
7900.00000	100.96476	565.15254	100.96476
7950.00000	100.88426	563.26942	100.88426
8000.00000	100.76770	561.39285	100.76770
8050.00000	100.63686	559.34903	100.63686
8100.00000	100.48647	557.48169	100.48647
8150.00000	100.35340	555.68407	100.35340
8200.00000	100.16836	554.01201	100.16836
8250.00000	100.01937	552.47736	100.01937
8300.00000	99.88092	550.96368	99.88092
8350.00000	99.69984	549.60240	99.69984
8400.00000	99.56149	548.44114	99.56149
8450.00000	99.39640	547.29338	99.39640
8500.00000	99.25975	546.38230	99.25975
8550.00000	99.14602	545.48794	99.14602
8600.00000	99.04080	544.71774	99.04080
8650.00000	98.95921	543.96803	98.95921
8700.00000	98.87118	543.49794	98.87118
8750.00000	98.80187	542.95942	98.80187
8800.00000	98.77652	542.35522	98.77652
8850.00000	98.78164	541.91046	98.78164
8900.00000	98.74424	541.52511	98.74424
8950.00000	98.77081	541.16127	98.77081
9000.00000	98.76363	540.56706	98.76363
9050.00000	98.79882	539.99592	98.79882
9100.00000	98.81838	539.48401	98.81838
9150.00000	98.87005	538.90675	98.87005
9200.00000	98.89245	538.20795	98.89245
9250.00000	98.92577	537.41425	98.92577
9300.00000	98.98766	536.56553	98.98766
9350.00000	99.05963	535.44127	99.05963
9400.00000	99.09833	534.41090	99.09833
9450.00000	99.18268	533.42632	99.18268
9500.00000	99.26239	531.96064	99.26239
9550.00000	99.34372	530.66007	99.34372
9600.00000	99.45462	529.39030	99.45462
9650.00000	99.57601	527.90784	99.57601
9700.00000	99.69430	526.11516	99.69430
9750.00000	99.79459	524.39644	99.79459
9800.00000	99.87662	522.91357	99.87662
9850.00000	100.01560	521.33559	100.01560
9900.00000	100.18040	519.93562	100.18040
9950.00000	100.30701	518.29351	100.30701
10000.00000	100.51986	517.00628	100.51986
10050.00000	100.73009	515.15162	100.73009
10100.00000	100.92355	513.12849	100.92355
10150.00000	101.06190	511.06313	101.06190
10200.00000	101.19947	509.08175	101.19947
10250.00000	101.29901	507.40754	101.29901
10300.00000	101.44672	505.40913	101.44672
10350.00000	101.57464	503.47558	101.57464
10400.00000	101.65157	501.37234	101.65157
10450.00000	101.78581	499.27071	101.78581
10500.00000	101.92373	496.64194	101.92373
10550.00000	102.02145	494.39475	102.02145
10600.00000	102.17299	491.35684	102.17299
10650.00000	102.25913	488.70240	102.25913
10700.00000	102.35327	485.71027	102.35327
10750.00000	102.43282	482.89310	102.43282
10800.00000	102.52355	479.47626	102.52355
10850.00000	102.59978	476.34769	102.59978
10900.00000	102.66569	473.20204	102.66569
10950.00000	102.70023	469.87484	102.70023
11000.00000	102.75510	466.63974	102.75510
11050.00000	102.71802	463.43557	102.71802
11100.00000	102.72656	460.20143	102.72656
11150.00000	102.69198	456.93741	102.69198
11200.00000	102.63426	453.91388	102.63426
11250.00000	102.51561	450.54575	102.51561
11300.00000	102.39347	447.56039	102.39347
11350.00000	102.26182	444.41181	102.26182
11400.00000	102.07241	441.24159	102.07241
11450.00000	101.88106	438.18349	101.88106
11500.00000	101.67767	435.07911	101.67767
11550.00000	101.45577	432.02667	101.45577
11600.00000	101.21451	429.20234	101.21451
11650.00000	100.96548	426.38249	100.96548
11700.00000	100.73722	423.66341	100.73722
11750.00000	100.48724	421.29374	100.48724
11800.00000	100.24761	419.28167	100.24761
11850.00000	100.07733	417.15957	100.07733
11900.00000	99.79905	415.58755	99.79905
11950.00000	99.61017	414.10742	99.61017
12000.00000	99.44836	413.24621	99.44836
12050.00000	99.21587	412.33251	99.21587
12100.00000	98.94417	411.50705	98.94417
12150.00000	98.71373	410.68617	98.71373
12200.00000	98.51964	409.92536	98.51964
12250.00000	98.32120	409.37673	98.32120
12300.00000	97.97888	408.68295	97.97888
12350.00000	97.84115	408.19571	97.84115
12400.00000	97.54517	406.91560	97.54517
12450.00000	97.49534	406.09518	97.49534
12500.00000	97.37367	405.91688	97.37367
12550.00000	97.23793	405.38794	97.23793
12600.00000	97.23765	403.69451	97.23765
12650.00000	97.21763	403.52459	97.21763
12700.00000	97.10722	402.33461	97.10722
12750.00000	97.05985	402.15615	97.05985
12800.00000	97.10781	401.49704	97.10781
12850.00000	96.95095	401.03922	96.95095
12900.00000	96.88803	399.44857	96.88803
12950.00000	96.99835	397.51434	96.99835
13000.00000	96.93072	395.73468	96.93072
13050.00000	96.93869	393.40465	96.93869
13100.00000	96.99123	391.09861	96.99123
13150.00000	97.28414	388.84295	97.28414
13200.00000	97.57384	384.44650	97.57384
13250.00000	98.22003	379.49542	98.22003
13300.00000	99.05166	379.68290	99.05166
13350.00000	100.14408	377.90522	100.14408
13400.00000	101.35693	381.14673	101.35693
13450.00000	102.06090	389.80089	102.06090
13500.00000	101.67778	403.60783	101.67778
13550.00000	100.58889	409.56424	100.58889
13600.00000	98.89259	411.57086	98.89259
13650.00000	97.29086	408.55117	97.29086
13700.00000	96.08775	403.19717	96.08775
13750.00000	95.30132	394.09310	95.30132
13800.00000	95.04143	385.50372	95.04143
13850.00000	95.10601	375.86313	95.10601
13900.00000	95.39227	366.43066	95.39227
13950.00000	96.32225	359.19941	96.32225
14000.00000	97.67305	353.67758	97.67305
14050.00000	99.43513	353.17145	99.43513
14100.00000	101.45184	355.84110	101.45184
14150.00000	102.74517	368.36906	102.74517
14200.00000	102.70110	383.00247	102.70110
14250.00000	101.41916	394.36989	101.41916
14300.00000	99.86333	397.99019	99.86333
14350.00000	98.58175	396.02433	98.58175
14400.00000	97.73081	393.00157	97.73081
14450.00000	97.08692	387.75385	97.08692
14500.00000	96.83842	381.44369	96.83842
14550.00000	96.90002	374.52734	96.90002
14600.00000	97.09832	369.31021	97.09832
14650.00000	97.61544	363.54945	97.61544
14700.00000	98.32387	357.40511	98.32387
14750.00000	99.14267	353.19739	99.14267
14800.00000	100.02999	350.28859	100.02999
14850.00000	101.06153	349.47783	101.06153
14900.00000	101.97639	350.26507	101.97639
14950.00000	102.50644	353.16509	102.50644
15000.00000	102.61352	356.10152	102.61352
15050.00000	102.36393	359.01861	102.36393
15100.00000	102.01341	359.04792	102.01341
15150.00000	101.47004	357.25221	101.47004
15200.00000	101.09615	354.15606	101.09615
15250.00000	100.71046	350.28046	100.71046
15300.00000	100.54561	345.32956	100.54561
15350.00000	100.64903	340.39065	100.64903
15400.00000	100.69059	335.12291	100.69059
15450.00000	100.90993	330.28325	100.90993
15500.00000	101.23466	326.81144	101.23466
15550.00000	101.60510	324.25362	101.60510
15600.00000	102.03665	321.88323	102.03665
15650.00000	102.32433	321.39532	102.32433
15700.00000	102.44159	321.21223	102.44159
15750.00000	102.55385	321.50224	102.55385
15800.00000	102.38316	321.46121	102.38316
15850.00000	102.25455	321.31795	102.25455
15900.00000	101.91256	319.47960	101.91256
15950.00000	101.70404	317.56567	101.70404
16000.00000	101.50906	315.22404	101.50906
16050.00000	101.51108	313.03714	101.51108
16100.00000	101.49082	310.49913	101.49082
16150.00000	101.63219	307.71366	101.63219
16200.00000	101.84067	305.88607	101.84067
16250.00000	102.02410	303.57359	102.02410
16300.00000	102.32370	302.09739	102.32370
16350.00000	102.58106	301.00318	102.58106
16400.00000	102.76494	300.59276	102.76494
16450.00000	102.96153	299.65772	102.96153
16500.00000	103.04256	298.48944	103.04256
16550.00000	103.11120	297.61933	103.11120
16600.00000	103.19069	295.57615	103.19069
16650.00000	103.17590	294.15639	103.17590
16700.00000	103.24342	291.93754	103.24342
16750.00000	103.31435	289.59461	103.31435
16800.00000	103.47383	287.41161	103.47383
16850.00000	103.63819	284.74483	103.63819
16900.00000	103.84966	283.07937	103.84966
16950.00000	104.00818	281.25892	104.00818
17000.00000	104.18867	279.35949	104.18867
17050.00000	104.40816	277.94403	104.40816
17100.00000	104.53706	276.33974	104.53706
17150.00000	104.71083	274.79255	104.71083
17200.00000	104.78001	272.89061	104.78001
17250.00000	104.88867	270.72748	104.88867
17300.00000	105.03179	268.54662	105.03179
17350.00000	105.14934	265.98939	105.14934
17400.00000	105.30936	263.43307	105.30936
17450.00000	105.48375	260.89766	105.48375
17500.00000	105.62679	258.40793	105.62679
17550.00000	105.79931	255.83754	105.79931
17600.00000	105.98038	253.51450	105.98038
17650.00000	106.14634	251.44035	106.14634
17700.00000	106.33330	249.11581	106.33330
17750.00000	106.49543	246.76413	106.49543
17800.00000	106.61057	244.53831	106.61057
17850.00000	106.74334	242.16745	106.74334
17900.00000	106.87587	239.66130	106.87587
17950.00000	106.96662	237.11508	106.96662
18000.00000	107.11000	234.40505	107.11000
18050.00000	107.22656	231.58941	107.22656
18100.00000	107.33487	228.89487	107.33487
18150.00000	107.45786	225.90790	107.45786
18200.00000	107.57576	223.02387	107.57576
18250.00000	107.67290	220.15231	107.67290
18300.00000	107.76890	217.25908	107.76890
18350.00000	107.85925	214.34637	107.85925
18400.00000	107.91379	211.28223	107.91379
18450.00000	108.01488	208.49466	108.01488
18500.00000	108.06343	205.63432	108.06343
18550.00000	108.13932	202.59938	108.13932
18600.00000	108.14711	199.81502	108.14711
18650.00000	108.21546	196.77611	108.21546
18700.00000	108.25237	194.02948	108.25237
18750.00000	108.25305	191.11271	108.25305
18800.00000	108.25659	188.26644	108.25659
18850.00000	108.25141	185.54424	108.25141
18900.00000	108.20596	182.83188	108.20596
18950.00000	108.20530	179.98147	108.20530
19000.00000	108.16306	177.21647	108.16306
19050.00000	108.14138	174.40273	108.14138
19100.00000	108.10416	171.84660	108.10416
19150.00000	108.08438	169.58015	108.08438
19200.00000	108.06085	166.92727	108.06085
19250.00000	108.01620	164.71567	108.01620
19300.00000	108.01201	162.44318	108.01201
19350.00000	108.01581	159.91665	108.01581
19400.00000	107.95326	157.74495	107.95326
19450.00000	107.95741	155.26591	107.95741
19500.00000	107.95133	153.22330	107.95133
19550.00000	107.94801	151.00922	107.94801
19600.00000	107.93573	148.73696	107.93573
19650.00000	107.93397	146.55625	107.93397
19700.00000	107.95576	144.26398	107.95576
19750.00000	107.96384	142.19203	107.96384
19800.00000	107.98747	140.27692	107.98747
19850.00000	107.99215	137.88150	107.99215
19900.00000	108.03340	135.69966	108.03340
19950.00000	108.04806	133.51330	108.04806
20000.00000	108.07095	130.92381	108.07095
20050.00000	108.09917	128.71830	108.09917
20100.00000	108.13332	126.48329	108.13332
20150.00000	108.17564	123.90994	108.17564
20200.00000	108.21241	121.62868	108.21241
20250.00000	108.24080	119.40093	108.24080
20300.00000	108.27610	117.02743	108.27610
20350.00000	108.30077	114.54856	108.30077
20400.00000	108.31882	112.15458	108.31882
20450.00000	108.35579	109.67366	108.35579
20500.00000	108.37331	107.06506	108.37331
20550.00000	108.37406	104.55237	108.37406
20600.00000	108.38688	101.91352	108.38688
20650.00000	108.42444	99.36481	108.42444
20700.00000	108.43131	97.03496	108.43131
20750.00000	108.40528	94.47962	108.40528
20800.00000	108.40151	91.87510	108.40151
20850.00000	108.38262	89.10920	108.38262
20900.00000	108.36698	86.64693	108.36698
20950.00000	108.34930	84.07367	108.34930
21000.00000	108.34853	81.25129	108.34853
21050.00000	108.32737	78.88715	108.32737
21100.00000	108.31596	76.23791	108.31596
21150.00000	108.26030	73.77523	108.26030
21200.00000	108.21103	71.47432	108.21103
21250.00000	108.13409	68.88624	108.13409
21300.00000	108.07198	66.13929	108.07198
21350.00000	108.00558	63.84862	108.00558
21400.00000	107.94747	60.99548	107.94747
21450.00000	107.92155	58.68902	107.92155
21500.00000	107.88536	56.54364	107.88536
21550.00000	107.82610	54.29240	107.82610
21600.00000	107.72700	51.88466	107.72700
21650.00000	107.66176	49.72392	107.66176
21700.00000	107.55523	47.29067	107.55523
21750.00000	107.47978	44.87187	107.47978
21800.00000	107.37037	42.49225	107.37037
21850.00000	107.31220	40.65201	107.31220
21900.00000	107.23290	38.52534	107.23290
21950.00000	107.15647	36.63033	107.15647
22000.00000	107.00990	34.70756	107.00990
22050.00000	106.90606	33.21255	106.90606
22100.00000	106.86168	31.63083	106.86168
22150.00000	106.77483	29.93991	106.77483
22200.00000	106.75648	28.08897	106.75648
22250.00000	106.72889	26.46656	106.72889
22300.00000	106.71477	24.62248	106.71477
22350.00000	106.68116	22.71980	106.68116
22400.00000	106.67960	20.84287	106.67960
22450.00000	106.68801	19.35379	106.68801
22500.00000	106.67456	17.49015	106.67456
22550.00000	106.65837	15.70775	106.65837
22600.00000	106.63688	14.13115	106.63688
22650.00000	106.64921	12.39888	106.64921
22700.00000	106.61819	10.83015	106.61819
22750.00000	106.69300	 8.60141	106.69300
22800.00000	106.68389	 6.84373	106.68389
22850.00000	106.71116	 4.93577	106.71116
22900.00000	106.76083	 3.19533	106.76083
22950.00000	106.79983	 1.38518	106.79983
23000.00000	106.79055	-0.35374	106.79055
23050.00000	106.80036	-2.45922	106.80036
23100.00000	106.83508	-4.55188	106.83508
