---ACOUSTIC CALIBRATION---
Filename: C:\Data\CL0809 DATA\CL08092\RightPrimary.calib
Date: 8/9/2019 10:57:50 AM
Format: 4
Probe Tube Correction File: C:\Data\Probe Tube Calibrations\74_ProbeTube.calib
Experiment VIs: 2128
EPL_CFTS.exe V15.0.1f5 (2015)
DAQmx V15.1

Attenuation (dB): 40.000000
Min Freq (Hz): 50.000000
Max Freq (Hz): 99950.000000
Freq Step (Hz): 50.000000
Sample Rate (Hz): 200000.000000
[Smoothing]
Method=None
MA.Iterations=0
MA.Length=0
Loess.Length=0
Loess.Type=Linear
Loess.Robust=FALSE


Freq(Hz)	Mag(dB)	Phase(deg)	Unsmoothed(dB)

50.00000	94.35418	179.04381	94.35418
100.00000	72.58482	285.96491	72.58482
150.00000	65.97211	435.81563	65.97211
200.00000	67.88140	513.97568	67.88140
250.00000	52.08074	746.29795	52.08074
300.00000	64.70073	821.45145	64.70073
350.00000	65.37940	983.26722	65.37940
400.00000	64.07884	1042.75563	64.07884
450.00000	67.87140	1078.14102	67.87140
500.00000	72.53136	1194.60117	72.53136
550.00000	77.00220	1137.14714	77.00220
600.00000	76.89763	1092.95468	76.89763
650.00000	83.02227	1084.29587	83.02227
700.00000	81.46443	1087.67099	81.46443
750.00000	84.72759	1057.22918	84.72759
800.00000	85.11140	1048.69195	85.11140
850.00000	83.62948	1050.42164	83.62948
900.00000	84.20478	1060.92920	84.20478
950.00000	87.56442	1062.51913	87.56442
1000.00000	89.80856	1065.66290	89.80856
1050.00000	92.97519	1056.84077	92.97519
1100.00000	95.58952	1043.05402	95.58952
1150.00000	96.99983	1027.86020	96.99983
1200.00000	97.63295	1016.23845	97.63295
1250.00000	98.13843	1008.32406	98.13843
1300.00000	99.42862	1002.92156	99.42862
1350.00000	100.84849	991.71673	100.84849
1400.00000	101.53404	978.45734	101.53404
1450.00000	101.60677	966.65719	101.60677
1500.00000	101.66948	958.85575	101.66948
1550.00000	101.79141	950.42514	101.79141
1600.00000	102.22822	945.97532	102.22822
1650.00000	102.71914	942.19696	102.71914
1700.00000	106.35276	926.30466	106.35276
1750.00000	103.11200	906.79452	103.11200
1800.00000	102.67810	902.48976	102.67810
1850.00000	102.31421	895.45664	102.31421
1900.00000	102.01637	888.90248	102.01637
1950.00000	101.24546	885.15921	101.24546
2000.00000	100.78309	883.65177	100.78309
2050.00000	101.07729	883.44137	101.07729
2100.00000	101.71984	878.78810	101.71984
2150.00000	102.10512	870.50552	102.10512
2200.00000	101.84290	859.92670	101.84290
2250.00000	100.91738	854.54415	100.91738
2300.00000	100.65309	853.36146	100.65309
2350.00000	100.70795	847.88203	100.70795
2400.00000	100.68603	842.16460	100.68603
2450.00000	100.17391	834.47848	100.17391
2500.00000	99.29973	831.55693	99.29973
2550.00000	99.00213	828.67265	99.00213
2600.00000	98.63252	825.28754	98.63252
2650.00000	98.19195	822.55434	98.19195
2700.00000	97.81096	819.20661	97.81096
2750.00000	97.35399	816.68692	97.35399
2800.00000	96.92643	813.56861	96.92643
2850.00000	96.51308	811.43176	96.51308
2900.00000	96.12713	809.65038	96.12713
2950.00000	95.76695	808.03506	95.76695
3000.00000	95.42516	806.79013	95.42516
3050.00000	95.19842	805.37507	95.19842
3100.00000	94.99152	803.19380	94.99152
3150.00000	94.56220	800.79043	94.56220
3200.00000	94.22742	798.49366	94.22742
3250.00000	93.91567	796.55656	93.91567
3300.00000	93.35157	794.46822	93.35157
3350.00000	92.98662	793.51888	92.98662
3400.00000	92.48170	791.59748	92.48170
3450.00000	91.99412	792.01171	91.99412
3500.00000	91.45301	791.35194	91.45301
3550.00000	91.26797	789.18516	91.26797
3600.00000	90.29248	785.38784	90.29248
3650.00000	89.19669	786.41388	89.19669
3700.00000	87.82056	787.55632	87.82056
3750.00000	86.44825	789.91151	86.44825
3800.00000	85.14180	798.30802	85.14180
3850.00000	83.74577	805.18412	83.74577
3900.00000	83.10594	820.68081	83.10594
3950.00000	82.96418	841.88388	82.96418
4000.00000	84.64558	861.82680	84.64558
4050.00000	86.47706	871.91846	86.47706
4100.00000	88.75318	878.11038	88.75318
4150.00000	91.51613	879.51600	91.51613
4200.00000	93.49125	878.56593	93.49125
4250.00000	94.45610	869.75426	94.45610
4300.00000	95.45303	870.24342	95.45303
4350.00000	96.72168	868.85764	96.72168
4400.00000	97.94036	865.50326	97.94036
4450.00000	98.89962	860.46409	98.89962
4500.00000	99.80458	855.43302	99.80458
4550.00000	100.31522	850.67838	100.31522
4600.00000	100.70104	846.79924	100.70104
4650.00000	101.09426	845.58210	101.09426
4700.00000	101.73456	845.26506	101.73456
4750.00000	102.60191	844.52685	102.60191
4800.00000	103.62825	843.28216	103.62825
4850.00000	104.74620	840.82112	104.74620
4900.00000	105.90991	836.81294	105.90991
4950.00000	107.04142	832.60564	107.04142
5000.00000	108.22649	827.70104	108.22649
5050.00000	109.54733	822.16425	109.54733
5100.00000	111.07129	815.40011	111.07129
5150.00000	112.92370	806.42338	112.92370
5200.00000	115.33133	791.63184	115.33133
5250.00000	117.81999	760.92314	117.81999
5300.00000	116.08295	712.59104	116.08295
5350.00000	110.05128	689.51926	110.05128
5400.00000	104.70398	694.74088	104.70398
5450.00000	102.42188	709.35993	102.42188
5500.00000	100.87258	715.08326	100.87258
5550.00000	98.54561	728.61867	98.54561
5600.00000	98.43084	753.07601	98.43084
5650.00000	100.55992	767.65905	100.55992
5700.00000	102.74961	770.39521	102.74961
5750.00000	104.38797	767.43960	104.38797
5800.00000	105.36423	762.72777	105.36423
5850.00000	105.82828	758.33234	105.82828
5900.00000	106.08296	755.60404	106.08296
5950.00000	106.39078	754.65259	106.39078
6000.00000	106.84720	754.44486	106.84720
6050.00000	107.46129	753.95334	107.46129
6100.00000	108.17350	753.12614	108.17350
6150.00000	108.94425	751.65956	108.94425
6200.00000	109.78201	750.01313	109.78201
6250.00000	110.68379	747.59373	110.68379
6300.00000	111.64024	744.57391	111.64024
6350.00000	112.64208	740.84332	112.64208
6400.00000	113.67806	736.34261	113.67806
6450.00000	114.74166	730.78856	114.74166
6500.00000	115.79296	724.06536	115.79296
6550.00000	116.81713	716.03539	116.81713
6600.00000	117.70422	706.64679	117.70422
6650.00000	118.40350	696.22576	118.40350
6700.00000	118.88503	685.22771	118.88503
6750.00000	119.14964	674.07605	119.14964
6800.00000	119.21404	663.00744	119.21404
6850.00000	119.08646	652.24951	119.08646
6900.00000	118.78091	642.16069	118.78091
6950.00000	118.35565	633.01426	118.35565
7000.00000	117.86609	624.79094	117.86609
7050.00000	117.36469	617.47985	117.36469
7100.00000	116.86122	610.72375	116.86122
7150.00000	116.38168	604.47868	116.38168
7200.00000	115.92241	598.62298	115.92241
7250.00000	115.49325	592.99548	115.49325
7300.00000	115.07713	587.36352	115.07713
7350.00000	114.65449	581.71030	114.65449
7400.00000	114.20558	576.11840	114.20558
7450.00000	113.71551	570.64288	113.71551
7500.00000	113.19213	565.36047	113.19213
7550.00000	112.64406	560.22297	112.64406
7600.00000	112.06291	555.39889	112.06291
7650.00000	111.45793	550.82697	111.45793
7700.00000	110.82736	546.67730	110.82736
7750.00000	110.19884	542.76727	110.19884
7800.00000	109.56194	539.36426	109.56194
7850.00000	108.93065	536.14004	108.93065
7900.00000	108.31852	533.19575	108.31852
7950.00000	107.69952	530.66498	107.69952
8000.00000	107.09696	528.41387	107.09696
8050.00000	106.51664	526.43743	106.51664
8100.00000	105.95314	524.65266	105.95314
8150.00000	105.43115	523.05772	105.43115
8200.00000	104.90940	521.69628	104.90940
8250.00000	104.42332	520.50214	104.42332
8300.00000	103.97002	519.35753	103.97002
8350.00000	103.53213	518.41804	103.53213
8400.00000	103.13113	517.68392	103.13113
8450.00000	102.74660	516.90775	102.74660
8500.00000	102.38543	516.23522	102.38543
8550.00000	102.04890	515.78081	102.04890
8600.00000	101.75551	515.36959	101.75551
8650.00000	101.47986	515.04202	101.47986
8700.00000	101.23097	514.70949	101.23097
8750.00000	101.00252	514.38874	101.00252
8800.00000	100.84618	514.02463	100.84618
8850.00000	100.69894	513.44923	100.69894
8900.00000	100.53013	513.21258	100.53013
8950.00000	100.43465	512.91875	100.43465
9000.00000	100.32047	512.38480	100.32047
9050.00000	100.26328	511.69424	100.26328
9100.00000	100.20893	511.26748	100.20893
9150.00000	100.18011	510.63292	100.18011
9200.00000	100.17181	509.87269	100.17181
9250.00000	100.12657	509.11760	100.12657
9300.00000	100.17591	508.22394	100.17591
9350.00000	100.20723	507.03918	100.20723
9400.00000	100.21856	505.91579	100.21856
9450.00000	100.29536	504.84421	100.29536
9500.00000	100.34533	503.36214	100.34533
9550.00000	100.40713	502.03059	100.40713
9600.00000	100.46518	500.51552	100.46518
9650.00000	100.53458	498.84671	100.53458
9700.00000	100.55384	496.95289	100.55384
9750.00000	100.54492	495.20244	100.54492
9800.00000	100.54178	493.32852	100.54178
9850.00000	100.43056	491.34136	100.43056
9900.00000	100.28406	490.45645	100.28406
9950.00000	100.05656	490.54928	100.05656
10000.00000	100.17020	493.30157	100.17020
10050.00000	100.91854	494.59179	100.91854
10100.00000	101.71430	491.36422	101.71430
10150.00000	102.08047	486.73891	102.08047
10200.00000	102.29306	482.65278	102.29306
10250.00000	102.40531	479.05461	102.40531
10300.00000	102.52522	475.44958	102.52522
10350.00000	102.63798	472.09351	102.63798
10400.00000	102.70070	468.65232	102.70070
10450.00000	102.79443	465.14014	102.79443
10500.00000	102.90368	461.40133	102.90368
10550.00000	102.97229	457.97717	102.97229
10600.00000	103.09979	453.97406	103.09979
10650.00000	103.12708	450.25505	103.12708
10700.00000	103.16358	446.06789	103.16358
10750.00000	103.18752	442.27134	103.18752
10800.00000	103.19726	437.94833	103.19726
10850.00000	103.20432	433.85109	103.20432
10900.00000	103.18113	429.70301	103.18113
10950.00000	103.11233	425.45950	103.11233
11000.00000	103.05687	421.23294	103.05687
11050.00000	102.90461	416.93974	102.90461
11100.00000	102.80982	412.67678	102.80982
11150.00000	102.65716	408.20159	102.65716
11200.00000	102.48565	403.95470	102.48565
11250.00000	102.25027	399.38897	102.25027
11300.00000	102.02804	395.18960	102.02804
11350.00000	101.79462	390.78561	101.79462
11400.00000	101.49747	386.39270	101.49747
11450.00000	101.21767	381.99083	101.21767
11500.00000	100.93473	377.76751	100.93473
11550.00000	100.60781	373.60613	100.60781
11600.00000	100.26396	369.66858	100.26396
11650.00000	99.92263	365.65556	99.92263
11700.00000	99.58563	361.69351	99.58563
11750.00000	99.20012	358.10627	99.20012
11800.00000	98.86978	354.57945	98.86978
11850.00000	98.51574	350.76351	98.51574
11900.00000	98.07779	347.52314	98.07779
11950.00000	97.73045	344.24943	97.73045
12000.00000	97.40627	341.24392	97.40627
12050.00000	96.99692	338.24123	96.99692
12100.00000	96.53541	335.01618	96.53541
12150.00000	96.12863	331.73533	96.12863
12200.00000	95.78604	328.37098	95.78604
12250.00000	95.37484	325.16784	95.37484
12300.00000	94.86208	321.73834	94.86208
12350.00000	94.51535	318.43896	94.51535
12400.00000	94.02985	314.47493	94.02985
12450.00000	93.75288	310.76626	93.75288
12500.00000	93.41154	307.62224	93.41154
12550.00000	93.06822	304.38217	93.06822
12600.00000	92.76231	299.69723	92.76231
12650.00000	92.45414	295.79512	92.45414
12700.00000	92.10433	291.51575	92.10433
12750.00000	91.79259	287.31755	91.79259
12800.00000	91.58087	282.60003	91.58087
12850.00000	91.21203	278.48629	91.21203
12900.00000	90.92941	272.60359	90.92941
12950.00000	90.85228	266.69015	90.85228
13000.00000	90.65644	260.07954	90.65644
13050.00000	90.57858	253.62733	90.57858
13100.00000	90.58190	246.46720	90.58190
13150.00000	90.83934	239.83690	90.83934
13200.00000	91.12450	231.27316	91.12450
13250.00000	91.87305	220.69189	91.87305
13300.00000	92.72958	216.25118	92.72958
13350.00000	94.05480	209.00044	94.05480
13400.00000	95.54236	207.27676	95.54236
13450.00000	96.59292	210.79873	96.59292
13500.00000	96.73084	219.24438	96.73084
13550.00000	96.03457	220.23210	96.03457
13600.00000	94.89310	217.98359	94.89310
13650.00000	93.92224	210.40127	93.92224
13700.00000	93.32116	200.76025	93.32116
13750.00000	93.14102	187.14740	93.14102
13800.00000	93.53020	174.31500	93.53020
13850.00000	94.15119	160.66993	94.15119
13900.00000	95.00514	146.65972	95.00514
13950.00000	96.38008	134.94683	96.38008
14000.00000	98.18245	124.89145	98.18245
14050.00000	100.37102	119.45236	100.37102
14100.00000	102.77313	116.96426	102.77313
14150.00000	104.46200	124.69816	104.46200
14200.00000	104.73484	134.43955	104.73484
14250.00000	103.76287	140.87057	103.76287
14300.00000	102.51627	140.00492	102.51627
14350.00000	101.51406	133.63363	101.51406
14400.00000	100.92228	126.33661	100.92228
14450.00000	100.50555	117.13340	100.50555
14500.00000	100.39046	107.39802	100.39046
14550.00000	100.63728	96.90645	100.63728
14600.00000	100.92407	88.45319	100.92407
14650.00000	101.49678	79.43821	101.49678
14700.00000	102.26507	70.19746	102.26507
14750.00000	103.11894	62.77164	103.11894
14800.00000	104.05103	57.34722	104.05103
14850.00000	105.09514	53.03769	105.09514
14900.00000	106.07239	50.94468	106.07239
14950.00000	106.58693	51.10882	106.58693
15000.00000	106.72870	51.43427	106.72870
15050.00000	106.52721	51.81831	106.52721
15100.00000	106.09607	49.55972	106.09607
15150.00000	105.60064	45.35686	105.60064
15200.00000	105.23481	40.38025	105.23481
15250.00000	104.82568	34.66950	104.82568
15300.00000	104.57190	27.97692	104.57190
15350.00000	104.57281	21.62323	104.57281
15400.00000	104.59029	14.79090	104.59029
15450.00000	104.70681	 8.34423	104.70681
15500.00000	104.99843	 3.17655	104.99843
15550.00000	105.28033	-1.03594	105.28033
15600.00000	105.64690	-4.31207	105.64690
15650.00000	105.95276	-6.64085	105.95276
15700.00000	105.98914	-7.69837	105.98914
15750.00000	106.11413	-8.77639	106.11413
15800.00000	105.95605	-10.05439	105.95605
15850.00000	105.84067	-11.13312	105.84067
15900.00000	105.54781	-13.76612	105.54781
15950.00000	105.30755	-16.70741	105.30755
16000.00000	105.12823	-20.05342	105.12823
16050.00000	105.11966	-23.64998	105.11966
16100.00000	105.06280	-27.06420	105.06280
16150.00000	105.16485	-31.08566	105.16485
16200.00000	105.31488	-34.24817	105.31488
16250.00000	105.46900	-37.68897	105.46900
16300.00000	105.67034	-40.47401	105.67034
16350.00000	105.90039	-42.68231	105.90039
16400.00000	106.02692	-44.33165	106.02692
16450.00000	106.18899	-46.00520	106.18899
16500.00000	106.20559	-48.19445	106.20559
16550.00000	106.22080	-50.12853	106.22080
16600.00000	106.24028	-52.48170	106.24028
16650.00000	106.19429	-55.21522	106.19429
16700.00000	106.24019	-58.16750	106.24019
16750.00000	106.24046	-61.31872	106.24046
16800.00000	106.29164	-64.32261	106.29164
16850.00000	106.41803	-67.75549	106.41803
16900.00000	106.53401	-70.48883	106.53401
16950.00000	106.63462	-73.28544	106.63462
17000.00000	106.78854	-75.76565	106.78854
17050.00000	106.89869	-77.98641	106.89869
17100.00000	107.01427	-80.25783	107.01427
17150.00000	107.06480	-82.63361	107.06480
17200.00000	107.06408	-84.95739	107.06408
17250.00000	107.12250	-87.83628	107.12250
17300.00000	107.17969	-90.49913	107.17969
17350.00000	107.22094	-93.34328	107.22094
17400.00000	107.27299	-96.51763	107.27299
17450.00000	107.36142	-99.26193	107.36142
17500.00000	107.41026	-102.06771	107.41026
17550.00000	107.49629	-105.14224	107.49629
17600.00000	107.62393	-107.83184	107.62393
17650.00000	107.72048	-110.51263	107.72048
17700.00000	107.82178	-113.27743	107.82178
17750.00000	107.91079	-115.79907	107.91079
17800.00000	107.97008	-118.56194	107.97008
17850.00000	108.04996	-121.26722	108.04996
17900.00000	108.11542	-124.05942	108.11542
17950.00000	108.15780	-127.03366	108.15780
18000.00000	108.22469	-130.13104	108.22469
18050.00000	108.27333	-133.10500	108.27333
18100.00000	108.32866	-136.17922	108.32866
18150.00000	108.38378	-139.31220	108.38378
18200.00000	108.42307	-142.43876	108.42307
18250.00000	108.45736	-145.61455	108.45736
18300.00000	108.47955	-148.76095	108.47955
18350.00000	108.49416	-151.89943	108.49416
18400.00000	108.49385	-154.99018	108.49385
18450.00000	108.49192	-158.04996	108.49192
18500.00000	108.50285	-161.02329	108.50285
18550.00000	108.47662	-164.25593	108.47662
18600.00000	108.43870	-167.23161	108.43870
18650.00000	108.44059	-170.23593	108.44059
18700.00000	108.41454	-173.11820	108.41454
18750.00000	108.35653	-176.02879	108.35653
18800.00000	108.29155	-178.87790	108.29155
18850.00000	108.25457	-181.72827	108.25457
18900.00000	108.15550	-184.44157	108.15550
18950.00000	108.10262	-187.23147	108.10262
19000.00000	108.00788	-189.94311	108.00788
19050.00000	107.94094	-192.70634	107.94094
19100.00000	107.87244	-195.38296	107.87244
19150.00000	107.82751	-197.63992	107.82751
19200.00000	107.78349	-200.36513	107.78349
19250.00000	107.69453	-202.58712	107.69453
19300.00000	107.65993	-204.98880	107.65993
19350.00000	107.62818	-207.48909	107.62818
19400.00000	107.54159	-209.70980	107.54159
19450.00000	107.49862	-212.26049	107.49862
19500.00000	107.45733	-214.41671	107.45733
19550.00000	107.43466	-216.75261	107.43466
19600.00000	107.38280	-219.00723	107.38280
19650.00000	107.34617	-221.25303	107.34617
19700.00000	107.32587	-223.64947	107.32587
19750.00000	107.29345	-225.86568	107.29345
19800.00000	107.28582	-227.81132	107.28582
19850.00000	107.24248	-230.38490	107.24248
19900.00000	107.23298	-232.65421	107.23298
19950.00000	107.21546	-234.78273	107.21546
20000.00000	107.17933	-237.36434	107.17933
20050.00000	107.15266	-239.54351	107.15266
20100.00000	107.16172	-241.86063	107.16172
20150.00000	107.13135	-244.41234	107.13135
20200.00000	107.14443	-246.62180	107.14443
20250.00000	107.12417	-248.80059	107.12417
20300.00000	107.10650	-251.07732	107.10650
20350.00000	107.09963	-253.38453	107.09963
20400.00000	107.09370	-255.65775	107.09370
20450.00000	107.06613	-257.89746	107.06613
20500.00000	107.05301	-260.26064	107.05301
20550.00000	107.03357	-262.69761	107.03357
20600.00000	107.01625	-264.89260	107.01625
20650.00000	107.03061	-267.42416	107.03061
20700.00000	107.01379	-269.47580	107.01379
20750.00000	106.97961	-271.83109	106.97961
20800.00000	106.96857	-274.09974	106.96857
20850.00000	106.94440	-276.51056	106.94440
20900.00000	106.91540	-278.75571	106.91540
20950.00000	106.92847	-281.15342	106.92847
21000.00000	106.93814	-283.67846	106.93814
21050.00000	106.94375	-285.99078	106.94375
21100.00000	106.93303	-288.50372	106.93303
21150.00000	106.94801	-290.59153	106.94801
21200.00000	106.90949	-292.90502	106.90949
21250.00000	106.87569	-295.35205	106.87569
21300.00000	106.85579	-297.72252	106.85579
21350.00000	106.84062	-300.24478	106.84062
21400.00000	106.80342	-302.87441	106.80342
21450.00000	106.84425	-305.21806	106.84425
21500.00000	106.86163	-307.23770	106.86163
21550.00000	106.85966	-309.80780	106.85966
21600.00000	106.83208	-312.37272	106.83208
21650.00000	106.82087	-314.61050	106.82087
21700.00000	106.78402	-317.33288	106.78402
21750.00000	106.77258	-319.98837	106.77258
21800.00000	106.70387	-322.83463	106.70387
21850.00000	106.72145	-325.26235	106.72145
21900.00000	106.68714	-327.89566	106.68714
21950.00000	106.64386	-330.34720	106.64386
22000.00000	106.52263	-333.05858	106.52263
22050.00000	106.46983	-335.32571	106.46983
22100.00000	106.42347	-337.62455	106.42347
22150.00000	106.35944	-340.08579	106.35944
22200.00000	106.30671	-342.57889	106.30671
22250.00000	106.27890	-344.99628	106.27890
22300.00000	106.22566	-347.46581	106.22566
22350.00000	106.10353	-350.06349	106.10353
22400.00000	106.05186	-352.68524	106.05186
22450.00000	105.96058	-355.04572	105.96058
22500.00000	105.83872	-357.53579	105.83872
22550.00000	105.79910	-359.70903	105.79910
22600.00000	105.67429	-361.96328	105.67429
22650.00000	105.59085	-364.02747	105.59085
22700.00000	105.45703	-366.00733	105.45703
22750.00000	105.38301	-368.40887	105.38301
22800.00000	105.29530	-370.70092	105.29530
22850.00000	105.18378	-372.76153	105.18378
22900.00000	105.11928	-374.56756	105.11928
22950.00000	105.08229	-376.67023	105.08229
