---ACOUSTIC CALIBRATION---
Filename: C:\Data\AZH DATA\AZH42\RightSecondary.calib
Date: 8/27/2019 2:46:03 PM
Format: 4
Probe Tube Correction File: C:\Data\Probe Tube Calibrations\50_ProbeTube.calib
Experiment VIs: 850
EPL_CFTS.exe V12.0.1 (2012)
DAQmx V9.6

Attenuation (dB): 40.000000
Min Freq (Hz): 50.000000
Max Freq (Hz): 49950.000000
Freq Step (Hz): 50.000000
Sample Rate (Hz): 100000.000000
[Smoothing]
Method=None
MA.Iterations=0
MA.Length=0
Loess.Length=0
Loess.Type=Linear
Loess.Robust=FALSE


Freq(Hz)	Mag(dB)	Phase(deg)	Unsmoothed(dB)

50.00000	107.57414	476.49445	107.57414
100.00000	75.74732	598.39673	75.74732
150.00000	76.69949	452.32329	76.69949
200.00000	79.12988	421.04362	79.12988
250.00000	85.18169	428.09609	85.18169
300.00000	83.84772	338.91963	83.84772
350.00000	83.57041	321.33537	83.57041
400.00000	83.30138	303.43075	83.30138
450.00000	84.37208	296.48580	84.37208
500.00000	85.31354	327.30657	85.31354
550.00000	88.81074	317.59272	88.81074
600.00000	90.67384	310.46671	90.67384
650.00000	92.80946	319.09736	92.80946
700.00000	94.97392	308.79382	94.97392
750.00000	96.97902	311.37416	96.97902
800.00000	99.63121	300.26008	99.63121
850.00000	101.93118	289.68174	101.93118
900.00000	103.53504	272.07942	103.53504
950.00000	104.84555	255.19496	104.84555
1000.00000	104.70857	237.11890	104.70857
1050.00000	104.21155	228.43892	104.21155
1100.00000	104.46294	216.49227	104.46294
1150.00000	103.55706	206.22348	103.55706
1200.00000	103.33561	203.71504	103.33561
1250.00000	103.37364	192.54706	103.37364
1300.00000	102.39451	186.56695	102.39451
1350.00000	101.60068	181.62422	101.60068
1400.00000	100.74867	182.66753	100.74867
1450.00000	101.01291	182.21533	101.01291
1500.00000	101.04781	181.14876	101.04781
1550.00000	101.17160	179.70952	101.17160
1600.00000	101.71362	175.59832	101.71362
1650.00000	102.60501	167.48327	102.60501
1700.00000	101.31681	163.35833	101.31681
1750.00000	101.24032	161.74442	101.24032
1800.00000	100.94127	158.80725	100.94127
1850.00000	100.77903	160.95988	100.77903
1900.00000	101.70151	162.14527	101.70151
1950.00000	102.54199	154.37013	102.54199
2000.00000	102.25855	145.01483	102.25855
2050.00000	101.44632	141.64135	101.44632
2100.00000	101.44564	139.49391	101.44564
2150.00000	101.02713	136.32531	101.02713
2200.00000	100.64001	132.72153	100.64001
2250.00000	99.74702	131.78793	99.74702
2300.00000	99.68927	132.45217	99.68927
2350.00000	99.31853	132.73216	99.31853
2400.00000	99.43593	134.04468	99.43593
2450.00000	99.34738	131.25661	99.34738
2500.00000	98.89554	133.21207	98.89554
2550.00000	98.60618	134.21254	98.60618
2600.00000	98.46280	141.03274	98.46280
2650.00000	99.59464	147.54361	99.59464
2700.00000	101.42028	148.91227	101.42028
2750.00000	102.86985	140.49010	102.86985
2800.00000	103.33943	130.71308	103.33943
2850.00000	103.22188	122.16939	103.22188
2900.00000	102.82355	115.97792	102.82355
2950.00000	102.43096	112.45433	102.43096
3000.00000	102.07367	109.07866	102.07367
3050.00000	101.60780	105.95502	101.60780
3100.00000	101.44664	103.64758	101.44664
3150.00000	100.98386	99.77943	100.98386
3200.00000	100.41799	97.94438	100.41799
3250.00000	99.70465	96.47828	99.70465
3300.00000	98.68407	94.39047	98.68407
3350.00000	97.36296	97.60344	97.36296
3400.00000	96.55293	106.40735	96.55293
3450.00000	96.48262	115.98707	96.48262
3500.00000	97.01743	123.81621	97.01743
3550.00000	97.71206	126.27293	97.71206
3600.00000	98.09720	128.12119	98.09720
3650.00000	98.09071	130.29809	98.09071
3700.00000	97.79406	137.87463	97.79406
3750.00000	98.46291	149.10272	98.46291
3800.00000	100.21186	158.90947	100.21186
3850.00000	102.17505	162.91093	102.17505
3900.00000	104.10392	163.26204	104.10392
3950.00000	105.88084	160.14977	105.88084
4000.00000	107.26645	155.60631	107.26645
4050.00000	108.39158	151.54663	108.39158
4100.00000	109.31042	147.19148	109.31042
4150.00000	110.34555	143.57335	110.34555
4200.00000	111.06725	140.01442	111.06725
4250.00000	111.91644	136.96042	111.91644
4300.00000	112.81543	134.53549	112.81543
4350.00000	113.78990	131.75010	113.78990
4400.00000	114.89781	129.17426	114.89781
4450.00000	116.12915	125.81229	116.12915
4500.00000	117.47326	121.36957	117.47326
4550.00000	118.87209	115.44381	118.87209
4600.00000	120.25674	108.18194	120.25674
4650.00000	121.67036	99.57590	121.67036
4700.00000	122.98734	88.83550	122.98734
4750.00000	124.12575	76.13450	124.12575
4800.00000	124.96373	61.49939	124.96373
4850.00000	125.34741	45.84027	125.34741
4900.00000	125.23625	30.12320	125.23625
4950.00000	124.64310	15.59872	124.64310
5000.00000	123.60587	 3.55320	123.60587
5050.00000	122.50799	-4.78959	122.50799
5100.00000	121.26703	-14.10815	121.26703
5150.00000	118.79624	-16.39849	118.79624
5200.00000	117.71222	 1.91941	117.71222
5250.00000	120.81541	 7.49219	120.81541
5300.00000	122.53250	-5.89110	122.53250
5350.00000	122.84012	-19.41950	122.84012
5400.00000	122.58240	-30.45098	122.58240
5450.00000	122.14991	-39.24121	122.14991
5500.00000	121.67865	-46.78647	121.67865
5550.00000	121.21732	-53.20601	121.21732
5600.00000	120.75706	-59.18621	120.75706
5650.00000	120.31674	-64.63370	120.31674
5700.00000	119.86916	-69.84222	119.86916
5750.00000	119.44328	-74.54878	119.44328
5800.00000	119.01973	-79.04721	119.01973
5850.00000	118.62761	-83.36506	118.62761
5900.00000	118.24858	-87.48402	118.24858
5950.00000	117.90283	-91.42990	117.90283
6000.00000	117.54970	-95.25929	117.54970
6050.00000	117.18410	-99.07904	117.18410
6100.00000	116.83175	-102.76214	116.83175
6150.00000	116.48739	-106.33647	116.48739
6200.00000	116.14802	-109.73226	116.14802
6250.00000	115.82571	-113.03578	115.82571
6300.00000	115.51720	-116.38156	115.51720
6350.00000	115.19316	-119.64484	115.19316
6400.00000	114.88288	-122.72497	114.88288
6450.00000	114.58555	-125.89211	114.58555
6500.00000	114.25956	-129.01947	114.25956
6550.00000	113.94002	-131.89672	113.94002
6600.00000	113.60989	-134.60697	113.60989
6650.00000	113.30521	-137.23114	113.30521
6700.00000	112.99534	-140.02176	112.99534
6750.00000	112.66868	-142.51301	112.66868
6800.00000	112.36788	-144.79280	112.36788
6850.00000	112.07864	-147.00187	112.07864
6900.00000	111.80308	-149.09847	111.80308
6950.00000	111.52775	-151.09234	111.52775
7000.00000	111.32173	-152.92370	111.32173
7050.00000	111.07637	-155.05340	111.07637
7100.00000	110.87448	-157.16334	110.87448
7150.00000	110.66197	-158.78452	110.66197
7200.00000	110.43588	-160.66351	110.43588
7250.00000	110.26044	-162.37308	110.26044
7300.00000	110.09712	-163.89675	110.09712
7350.00000	109.93544	-165.22308	109.93544
7400.00000	109.85279	-166.70775	109.85279
7450.00000	109.77497	-168.20335	109.77497
7500.00000	109.75147	-169.78103	109.75147
7550.00000	109.75132	-171.61246	109.75132
7600.00000	109.74302	-173.66381	109.74302
7650.00000	109.75132	-175.78784	109.75132
7700.00000	109.81514	-178.18262	109.81514
7750.00000	109.80403	-180.79930	109.80403
7800.00000	109.81590	-183.71152	109.81590
7850.00000	109.81189	-186.40372	109.81189
7900.00000	109.79790	-189.59318	109.79790
7950.00000	109.73196	-193.03647	109.73196
8000.00000	109.63753	-196.43563	109.63753
8050.00000	109.52001	-199.96739	109.52001
8100.00000	109.38190	-202.77606	109.38190
8150.00000	109.14622	-206.05403	109.14622
8200.00000	108.96522	-208.85135	108.96522
8250.00000	108.72922	-211.93176	108.72922
8300.00000	108.54467	-214.64126	108.54467
8350.00000	108.30634	-217.07192	108.30634
8400.00000	108.03651	-219.95625	108.03651
8450.00000	107.76271	-222.05319	107.76271
8500.00000	107.51910	-224.33670	107.51910
8550.00000	107.34308	-226.25912	107.34308
8600.00000	107.10805	-228.42430	107.10805
8650.00000	106.88730	-230.51870	106.88730
8700.00000	106.70548	-233.01002	106.70548
8750.00000	106.45120	-234.31055	106.45120
8800.00000	106.28403	-236.86468	106.28403
8850.00000	106.06220	-238.98451	106.06220
8900.00000	105.89508	-240.83444	105.89508
8950.00000	105.77843	-242.87375	105.77843
9000.00000	105.59715	-244.85052	105.59715
9050.00000	105.53853	-247.27249	105.53853
9100.00000	105.43389	-249.10843	105.43389
9150.00000	105.35848	-251.31262	105.35848
9200.00000	105.31338	-253.25711	105.31338
9250.00000	105.18519	-255.18789	105.18519
9300.00000	105.10382	-257.15346	105.10382
9350.00000	105.04535	-258.95193	105.04535
9400.00000	104.84985	-260.45737	104.84985
9450.00000	104.81296	-262.53437	104.81296
9500.00000	104.75854	-264.47406	104.75854
9550.00000	104.65990	-266.41669	104.65990
9600.00000	104.65178	-268.93880	104.65178
9650.00000	104.60172	-271.40800	104.60172
9700.00000	104.58559	-273.16249	104.58559
9750.00000	104.62333	-276.01984	104.62333
9800.00000	104.52973	-277.56472	104.52973
9850.00000	104.48105	-279.03838	104.48105
9900.00000	104.25284	-281.06809	104.25284
9950.00000	104.11309	-282.54186	104.11309
10000.00000	103.96830	-285.00945	103.96830
10050.00000	103.73589	-287.15455	103.73589
10100.00000	103.52347	-289.44403	103.52347
10150.00000	103.26326	-292.62179	103.26326
10200.00000	103.13541	-295.19800	103.13541
10250.00000	103.01468	-298.15038	103.01468
10300.00000	103.04962	-300.81432	103.04962
10350.00000	102.96759	-302.99032	102.96759
10400.00000	102.84865	-305.31533	102.84865
10450.00000	102.85159	-307.58177	102.85159
10500.00000	102.79853	-309.71096	102.79853
10550.00000	102.68180	-311.91897	102.68180
10600.00000	102.52043	-314.08703	102.52043
10650.00000	102.33524	-316.28098	102.33524
10700.00000	102.22245	-319.80894	102.22245
10750.00000	102.15678	-322.77787	102.15678
10800.00000	102.02484	-325.41721	102.02484
10850.00000	101.92833	-328.92053	101.92833
10900.00000	101.83696	-331.16609	101.83696
10950.00000	101.70247	-333.23603	101.70247
11000.00000	101.51752	-335.39423	101.51752
11050.00000	101.13214	-337.57274	101.13214
11100.00000	100.83627	-340.55314	100.83627
11150.00000	100.43454	-342.92910	100.43454
11200.00000	100.20407	-345.44260	100.20407
11250.00000	99.86350	-348.46433	99.86350
11300.00000	99.56865	-350.93808	99.56865
11350.00000	99.34585	-352.72846	99.34585
11400.00000	99.00421	-354.42913	99.00421
11450.00000	98.76095	-356.32940	98.76095
11500.00000	98.56068	-357.01070	98.56068
11550.00000	98.15811	-358.14584	98.15811
11600.00000	97.97499	-360.28118	97.97499
11650.00000	97.67016	-360.96568	97.67016
11700.00000	97.51048	-362.62279	97.51048
11750.00000	97.41416	-364.47313	97.41416
11800.00000	97.31442	-366.29902	97.31442
11850.00000	97.27923	-366.51322	97.27923
11900.00000	97.00776	-368.28621	97.00776
11950.00000	96.88945	-368.95679	96.88945
12000.00000	96.61451	-369.65423	96.61451
12050.00000	96.31976	-370.84561	96.31976
12100.00000	96.14500	-373.44830	96.14500
12150.00000	95.93439	-375.61259	95.93439
12200.00000	95.88557	-377.96780	95.88557
12250.00000	95.69494	-379.73894	95.69494
12300.00000	96.72037	-381.99478	96.72037
12350.00000	95.46719	-383.83596	95.46719
12400.00000	95.27664	-384.65526	95.27664
12450.00000	95.00625	-385.93617	95.00625
12500.00000	94.71505	-387.93961	94.71505
12550.00000	94.45200	-390.13365	94.45200
12600.00000	94.14766	-392.05117	94.14766
12650.00000	94.04322	-393.59302	94.04322
12700.00000	93.70256	-395.22702	93.70256
12750.00000	93.46191	-397.03450	93.46191
12800.00000	93.11764	-397.80031	93.11764
12850.00000	92.58038	-398.67853	92.58038
12900.00000	92.23091	-400.32883	92.23091
12950.00000	92.02737	-401.65310	92.02737
13000.00000	91.67624	-403.32189	91.67624
13050.00000	91.49142	-402.58164	91.49142
13100.00000	91.20805	-403.57807	91.20805
13150.00000	90.94334	-404.86973	90.94334
13200.00000	90.59094	-403.52012	90.59094
13250.00000	90.24734	-403.88776	90.24734
13300.00000	89.91823	-403.09526	89.91823
13350.00000	89.61755	-404.83067	89.61755
13400.00000	89.65167	-405.83533	89.65167
13450.00000	89.37144	-404.86346	89.37144
13500.00000	89.26479	-403.86141	89.26479
13550.00000	88.91676	-404.02930	88.91676
13600.00000	88.67490	-402.44099	88.67490
13650.00000	88.34062	-402.04463	88.34062
13700.00000	87.88384	-402.14147	87.88384
13750.00000	87.68015	-401.69930	87.68015
13800.00000	87.37924	-402.67681	87.37924
13850.00000	87.30875	-403.58717	87.30875
13900.00000	87.03229	-402.56548	87.03229
13950.00000	87.06466	-401.36486	87.06466
14000.00000	87.22638	-399.47522	87.22638
14050.00000	87.30242	-398.68091	87.30242
14100.00000	86.98813	-396.03454	86.98813
14150.00000	87.14688	-395.47609	87.14688
14200.00000	87.20516	-394.82655	87.20516
14250.00000	87.43429	-391.40834	87.43429
14300.00000	87.26176	-390.61894	87.26176
14350.00000	87.41377	-389.20049	87.41377
14400.00000	86.98964	-389.05633	86.98964
14450.00000	87.10485	-387.18739	87.10485
14500.00000	87.21109	-389.32210	87.21109
14550.00000	87.55162	-388.05665	87.55162
14600.00000	87.77696	-387.65010	87.77696
14650.00000	88.14875	-384.68442	88.14875
14700.00000	88.27600	-386.43971	88.27600
14750.00000	88.27380	-384.65840	88.27380
14800.00000	88.15580	-383.84612	88.15580
14850.00000	88.40008	-384.32661	88.40008
14900.00000	88.77301	-384.25014	88.77301
14950.00000	89.07092	-385.41040	89.07092
15000.00000	89.35530	-385.51641	89.35530
15050.00000	89.55232	-384.09074	89.55232
15100.00000	89.59264	-383.37136	89.59264
15150.00000	90.00749	-383.57129	90.00749
15200.00000	90.33525	-381.83268	90.33525
15250.00000	90.48142	-383.21106	90.48142
15300.00000	90.86337	-382.34893	90.86337
15350.00000	91.05523	-382.59733	91.05523
15400.00000	91.11286	-381.31980	91.11286
15450.00000	91.23657	-383.04756	91.23657
15500.00000	91.56900	-383.85118	91.56900
15550.00000	91.95607	-385.62452	91.95607
15600.00000	92.39869	-385.93397	92.39869
15650.00000	93.00408	-383.74506	93.00408
15700.00000	93.16068	-384.78109	93.16068
15750.00000	93.48711	-384.48320	93.48711
15800.00000	93.80558	-384.42673	93.80558
15850.00000	94.19663	-385.21542	94.19663
15900.00000	94.45733	-386.53948	94.45733
15950.00000	95.00669	-386.82283	95.00669
16000.00000	95.36828	-387.51101	95.36828
16050.00000	95.66084	-389.00577	95.66084
16100.00000	96.01637	-390.49484	96.01637
16150.00000	96.41789	-392.32040	96.41789
16200.00000	96.96810	-394.42033	96.96810
16250.00000	97.32239	-395.41522	97.32239
16300.00000	97.84167	-396.88949	97.84167
16350.00000	98.15279	-399.00872	98.15279
16400.00000	98.54612	-400.81881	98.54612
16450.00000	98.95515	-402.14358	98.95515
16500.00000	99.25105	-404.57556	99.25105
16550.00000	99.62254	-407.72872	99.62254
16600.00000	100.01145	-410.13549	100.01145
16650.00000	100.35831	-412.58207	100.35831
16700.00000	100.75515	-414.21149	100.75515
16750.00000	100.92008	-416.75089	100.92008
16800.00000	101.22416	-419.82904	101.22416
16850.00000	101.61974	-422.99848	101.61974
16900.00000	102.00069	-425.86418	102.00069
16950.00000	102.27414	-428.01412	102.27414
17000.00000	102.39957	-430.62011	102.39957
17050.00000	102.65089	-432.69396	102.65089
17100.00000	102.80974	-435.17738	102.80974
17150.00000	103.21733	-438.89301	103.21733
17200.00000	103.47011	-441.25029	103.47011
17250.00000	103.64617	-444.11760	103.64617
17300.00000	103.86929	-446.77989	103.86929
17350.00000	103.94841	-449.13355	103.94841
17400.00000	104.24254	-451.87222	104.24254
17450.00000	104.41688	-454.98141	104.41688
17500.00000	104.64341	-457.63390	104.64341
17550.00000	104.83924	-460.41324	104.83924
17600.00000	105.12416	-462.90106	105.12416
17650.00000	105.29079	-466.49362	105.29079
17700.00000	105.47070	-469.36680	105.47070
17750.00000	105.78527	-471.65341	105.78527
17800.00000	105.84593	-475.32464	105.84593
17850.00000	106.06451	-477.59147	106.06451
17900.00000	106.20155	-480.29049	106.20155
17950.00000	106.46313	-483.71569	106.46313
18000.00000	106.59949	-487.36654	106.59949
18050.00000	106.89591	-489.87876	106.89591
18100.00000	106.99202	-493.48659	106.99202
18150.00000	107.14238	-495.94933	107.14238
18200.00000	107.24423	-499.46417	107.24423
18250.00000	107.42937	-502.06143	107.42937
18300.00000	107.65199	-505.05183	107.65199
18350.00000	107.79665	-508.05539	107.79665
18400.00000	107.87514	-511.41107	107.87514
18450.00000	107.98006	-515.82897	107.98006
18500.00000	108.14136	-518.83453	108.14136
18550.00000	108.26512	-521.66005	108.26512
18600.00000	108.48523	-525.41654	108.48523
18650.00000	108.47873	-528.34736	108.47873
18700.00000	108.59115	-532.37640	108.59115
18750.00000	108.75166	-535.59030	108.75166
18800.00000	108.97760	-538.54812	108.97760
18850.00000	108.96683	-542.36505	108.96683
18900.00000	109.03373	-545.70866	109.03373
18950.00000	109.14068	-549.88847	109.14068
19000.00000	109.06074	-553.14518	109.06074
19050.00000	109.26718	-557.00111	109.26718
19100.00000	109.25488	-560.49403	109.25488
19150.00000	109.44357	-564.11686	109.44357
19200.00000	109.42764	-567.49789	109.42764
19250.00000	109.41267	-572.24592	109.41267
19300.00000	109.33636	-575.36889	109.33636
19350.00000	109.36463	-579.18846	109.36463
19400.00000	109.28840	-582.71674	109.28840
19450.00000	109.35388	-585.83406	109.35388
19500.00000	109.20740	-590.32802	109.20740
19550.00000	109.18122	-593.80652	109.18122
19600.00000	109.18181	-597.94612	109.18181
19650.00000	109.04477	-601.02102	109.04477
19700.00000	108.85608	-604.70000	108.85608
19750.00000	108.72871	-607.81932	108.72871
19800.00000	108.72112	-611.91415	108.72112
19850.00000	108.61843	-614.95843	108.61843
19900.00000	108.44191	-619.01903	108.44191
19950.00000	108.28400	-622.21600	108.28400
20000.00000	108.14688	-625.45039	108.14688
20050.00000	108.01235	-628.56395	108.01235
20100.00000	107.75522	-631.84239	107.75522
20150.00000	107.64065	-633.99355	107.64065
20200.00000	107.41796	-637.68614	107.41796
20250.00000	107.17088	-640.50035	107.17088
20300.00000	106.90882	-643.28466	106.90882
20350.00000	106.74443	-646.40417	106.74443
20400.00000	106.49756	-647.82013	106.49756
20450.00000	106.19048	-650.37677	106.19048
20500.00000	106.03475	-652.92536	106.03475
20550.00000	105.58648	-654.23052	105.58648
20600.00000	105.44510	-655.92159	105.44510
20650.00000	105.22112	-657.54523	105.22112
20700.00000	104.94227	-658.93265	104.94227
20750.00000	104.79724	-660.12361	104.79724
20800.00000	104.57855	-660.91784	104.57855
20850.00000	104.48676	-661.88461	104.48676
20900.00000	104.29733	-662.54797	104.29733
20950.00000	104.17639	-662.59778	104.17639
21000.00000	104.13000	-663.03247	104.13000
21050.00000	104.24261	-663.11774	104.24261
21100.00000	104.26422	-663.26661	104.26422
21150.00000	104.41418	-663.99630	104.41418
21200.00000	104.58656	-664.41319	104.58656
21250.00000	104.74797	-666.47954	104.74797
21300.00000	104.99356	-667.16475	104.99356
21350.00000	105.18265	-668.50419	105.18265
21400.00000	105.34889	-670.68067	105.34889
21450.00000	105.55686	-672.82208	105.55686
21500.00000	105.75562	-675.48645	105.75562
21550.00000	105.80748	-677.64472	105.80748
21600.00000	106.02412	-680.26945	106.02412
21650.00000	106.08767	-683.18663	106.08767
21700.00000	106.16590	-685.60146	106.16590
21750.00000	106.24928	-688.37148	106.24928
21800.00000	106.30036	-691.01936	106.30036
21850.00000	106.25072	-693.52203	106.25072
21900.00000	106.30650	-696.37297	106.30650
21950.00000	106.31002	-698.73009	106.31002
22000.00000	106.37511	-701.25110	106.37511
22050.00000	106.32208	-703.24833	106.32208
22100.00000	106.30394	-705.90335	106.30394
22150.00000	106.27091	-708.28843	106.27091
22200.00000	106.31430	-710.74836	106.31430
22250.00000	106.25728	-712.46236	106.25728
22300.00000	106.10739	-714.88185	106.10739
22350.00000	106.19274	-717.15817	106.19274
22400.00000	106.15036	-719.55407	106.15036
22450.00000	106.12037	-721.25962	106.12037
22500.00000	105.99845	-722.46336	105.99845
22550.00000	105.95436	-724.87025	105.95436
22600.00000	105.91556	-727.74244	105.91556
22650.00000	105.89353	-729.23619	105.89353
22700.00000	105.85642	-730.82205	105.85642
22750.00000	105.85546	-731.09738	105.85546
22800.00000	105.82648	-734.66617	105.82648
