---ACOUSTIC CALIBRATION---
Filename: C:\Data\AZH DATA\AZH31\RightSecondary.calib
Date: 8/27/2019 12:50:02 PM
Format: 4
Probe Tube Correction File: C:\Data\Probe Tube Calibrations\50_ProbeTube.calib
Experiment VIs: 850
EPL_CFTS.exe V12.0.1 (2012)
DAQmx V9.6

Attenuation (dB): 40.000000
Min Freq (Hz): 50.000000
Max Freq (Hz): 49950.000000
Freq Step (Hz): 50.000000
Sample Rate (Hz): 100000.000000
[Smoothing]
Method=None
MA.Iterations=0
MA.Length=0
Loess.Length=0
Loess.Type=Linear
Loess.Robust=FALSE


Freq(Hz)	Mag(dB)	Phase(deg)	Unsmoothed(dB)

50.00000	100.34082	498.37323	100.34082
100.00000	80.04876	443.11828	80.04876
150.00000	78.41983	425.02263	78.41983
200.00000	79.63816	461.58114	79.63816
250.00000	88.14861	409.46936	88.14861
300.00000	84.90686	316.17617	84.90686
350.00000	84.96336	339.74110	84.96336
400.00000	87.71997	330.45409	87.71997
450.00000	86.12737	321.13781	86.12737
500.00000	88.11585	299.17492	88.11585
550.00000	87.68320	332.62151	87.68320
600.00000	91.63343	334.84793	91.63343
650.00000	92.99796	330.35782	92.99796
700.00000	95.21862	319.51292	95.21862
750.00000	97.44637	317.10834	97.44637
800.00000	100.33560	307.35869	100.33560
850.00000	102.41593	295.30602	102.41593
900.00000	103.94831	279.05944	103.94831
950.00000	105.25851	261.53589	105.25851
1000.00000	105.06917	244.02057	105.06917
1050.00000	104.61603	235.72926	104.61603
1100.00000	104.73853	224.06530	104.73853
1150.00000	104.12782	213.82409	104.12782
1200.00000	104.09762	210.46321	104.09762
1250.00000	103.84615	199.45978	103.84615
1300.00000	102.90763	194.34006	102.90763
1350.00000	102.14672	191.14875	102.14672
1400.00000	101.65868	191.14256	101.65868
1450.00000	101.73816	190.62053	101.73816
1500.00000	102.16691	188.83235	102.16691
1550.00000	102.06249	189.04928	102.06249
1600.00000	102.94653	185.69909	102.94653
1650.00000	103.65336	176.73210	103.65336
1700.00000	102.54287	171.39289	102.54287
1750.00000	102.23679	171.11871	102.23679
1800.00000	101.99362	167.49052	101.99362
1850.00000	101.58384	170.16994	101.58384
1900.00000	103.22661	171.40555	103.22661
1950.00000	103.69315	161.37199	103.69315
2000.00000	103.26173	153.51157	103.26173
2050.00000	102.45327	151.26964	102.45327
2100.00000	102.27109	149.60044	102.27109
2150.00000	102.29378	144.28132	102.29378
2200.00000	101.77848	142.53234	101.77848
2250.00000	100.90033	141.43436	100.90033
2300.00000	100.75911	142.50959	100.75911
2350.00000	100.59059	143.14420	100.59059
2400.00000	100.57158	143.16788	100.57158
2450.00000	100.39565	143.65842	100.39565
2500.00000	100.06234	145.48119	100.06234
2550.00000	99.96793	148.88428	99.96793
2600.00000	100.74036	155.31593	100.74036
2650.00000	102.29818	158.15196	102.29818
2700.00000	103.96463	152.73239	103.96463
2750.00000	104.67335	143.16543	104.67335
2800.00000	104.76400	133.69442	104.76400
2850.00000	104.38313	127.60739	104.38313
2900.00000	103.92073	122.98343	103.92073
2950.00000	103.56481	119.47256	103.56481
3000.00000	103.16291	116.42585	103.16291
3050.00000	102.70646	114.44430	102.70646
3100.00000	102.31157	112.67195	102.31157
3150.00000	102.01157	110.55051	102.01157
3200.00000	101.46360	109.05385	101.46360
3250.00000	100.60777	109.06021	100.60777
3300.00000	99.65628	109.15278	99.65628
3350.00000	98.44847	114.36568	98.44847
3400.00000	97.99657	124.01009	97.99657
3450.00000	98.37684	132.92626	98.37684
3500.00000	99.24425	139.28895	99.24425
3550.00000	99.74578	140.51568	99.74578
3600.00000	99.92098	142.85634	99.92098
3650.00000	99.84346	148.25579	99.84346
3700.00000	100.23081	159.47257	100.23081
3750.00000	101.79799	170.03283	101.79799
3800.00000	103.95240	174.43146	103.95240
3850.00000	105.88394	174.03432	105.88394
3900.00000	107.63578	171.35646	107.63578
3950.00000	109.21136	167.47471	109.21136
4000.00000	110.38936	162.47622	110.38936
4050.00000	111.43993	157.07309	111.43993
4100.00000	112.22358	152.76854	112.22358
4150.00000	113.08310	149.34266	113.08310
4200.00000	113.77945	146.20459	113.77945
4250.00000	114.64901	144.00639	114.64901
4300.00000	115.66026	141.55293	115.66026
4350.00000	116.77011	138.50651	116.77011
4400.00000	118.01691	134.96186	118.01691
4450.00000	119.37566	130.48368	119.37566
4500.00000	120.74639	124.64159	120.74639
4550.00000	122.13246	117.23564	122.13246
4600.00000	123.46634	108.39031	123.46634
4650.00000	124.75980	97.97304	124.75980
4700.00000	125.87163	85.59776	125.87163
4750.00000	126.68913	71.44806	126.68913
4800.00000	127.12611	56.21513	127.12611
4850.00000	127.08403	41.05360	127.08403
4900.00000	126.63228	26.91012	126.63228
4950.00000	125.84352	14.41826	125.84352
5000.00000	124.74000	 4.39951	124.74000
5050.00000	123.72173	-2.45191	123.72173
5100.00000	122.39784	-10.20445	122.39784
5150.00000	120.08445	-8.55897	120.08445
5200.00000	120.38709	10.09660	120.38709
5250.00000	123.33388	 6.01514	123.33388
5300.00000	124.23154	-8.51555	124.23154
5350.00000	124.12368	-20.48389	124.12368
5400.00000	123.72046	-29.89706	123.72046
5450.00000	123.21569	-37.37938	123.21569
5500.00000	122.73227	-43.99882	122.73227
5550.00000	122.28101	-49.78240	122.28101
5600.00000	121.80578	-55.07456	121.80578
5650.00000	121.38588	-59.97085	121.38588
5700.00000	120.93578	-64.91075	120.93578
5750.00000	120.52133	-69.20800	120.52133
5800.00000	120.11235	-73.28974	120.11235
5850.00000	119.71625	-77.49315	119.71625
5900.00000	119.34043	-81.30570	119.34043
5950.00000	118.98108	-84.84855	118.98108
6000.00000	118.66121	-88.28914	118.66121
6050.00000	118.27672	-92.03799	118.27672
6100.00000	117.91963	-95.53627	117.91963
6150.00000	117.62686	-98.74566	117.62686
6200.00000	117.29254	-102.15719	117.29254
6250.00000	116.93805	-105.35386	116.93805
6300.00000	116.63201	-108.23145	116.63201
6350.00000	116.30233	-111.47055	116.30233
6400.00000	115.97517	-114.52181	115.97517
6450.00000	115.66817	-117.47840	115.66817
6500.00000	115.32739	-120.05061	115.32739
6550.00000	114.97184	-122.54418	114.97184
6600.00000	114.64510	-125.08417	114.64510
6650.00000	114.30925	-127.40575	114.30925
6700.00000	114.01258	-129.86096	114.01258
6750.00000	113.71351	-131.72500	113.71351
6800.00000	113.39867	-133.79445	113.39867
6850.00000	113.16278	-135.81100	113.16278
6900.00000	112.89426	-137.66515	112.89426
6950.00000	112.63588	-139.48509	112.63588
7000.00000	112.40358	-141.51381	112.40358
7050.00000	112.12416	-143.12709	112.12416
7100.00000	111.92285	-144.87795	111.92285
7150.00000	111.67993	-146.28725	111.67993
7200.00000	111.43353	-147.67925	111.43353
7250.00000	111.23397	-148.82074	111.23397
7300.00000	111.09739	-149.90110	111.09739
7350.00000	110.91683	-150.55910	110.91683
7400.00000	110.78633	-151.92349	110.78633
7450.00000	110.82166	-152.75751	110.82166
7500.00000	110.73564	-153.58006	110.73564
7550.00000	110.72056	-154.76785	110.72056
7600.00000	110.75358	-155.89459	110.75358
7650.00000	110.79381	-157.29196	110.79381
7700.00000	110.93230	-158.98285	110.93230
7750.00000	110.99234	-160.86681	110.99234
7800.00000	111.05844	-163.10678	111.05844
7850.00000	111.10722	-165.11979	111.10722
7900.00000	111.20724	-167.44923	111.20724
7950.00000	111.22438	-169.72904	111.22438
8000.00000	111.30427	-172.56644	111.30427
8050.00000	111.37269	-175.66081	111.37269
8100.00000	111.39388	-178.03822	111.39388
8150.00000	111.35011	-180.91639	111.35011
8200.00000	111.34013	-183.44158	111.34013
8250.00000	111.31717	-186.63756	111.31717
8300.00000	111.30345	-189.46686	111.30345
8350.00000	111.23392	-192.27299	111.23392
8400.00000	111.11808	-195.59838	111.11808
8450.00000	110.95479	-198.38160	110.95479
8500.00000	110.87429	-201.34180	110.87429
8550.00000	110.78501	-203.95645	110.78501
8600.00000	110.63213	-206.72480	110.63213
8650.00000	110.46254	-209.42911	110.46254
8700.00000	110.35450	-212.41884	110.35450
8750.00000	110.17360	-214.21239	110.17360
8800.00000	110.05731	-217.32579	110.05731
8850.00000	109.87687	-219.89802	109.87687
8900.00000	109.76092	-222.35825	109.76092
8950.00000	109.64431	-225.14999	109.64431
9000.00000	109.44211	-227.32317	109.44211
9050.00000	109.41101	-230.03455	109.41101
9100.00000	109.34386	-232.37158	109.34386
9150.00000	109.27533	-234.94889	109.27533
9200.00000	109.26580	-237.39605	109.26580
9250.00000	109.14066	-239.35460	109.14066
9300.00000	109.11156	-241.90358	109.11156
9350.00000	109.10422	-244.23905	109.10422
9400.00000	108.96326	-246.50072	108.96326
9450.00000	108.96091	-248.81063	108.96091
9500.00000	108.85018	-251.14073	108.85018
9550.00000	108.77517	-253.56646	108.77517
9600.00000	108.79309	-256.40299	108.79309
9650.00000	108.77098	-259.54826	108.77098
9700.00000	108.70529	-261.83620	108.70529
9750.00000	108.66380	-265.31523	108.66380
9800.00000	108.53504	-267.45320	108.53504
9850.00000	108.41022	-269.51623	108.41022
9900.00000	108.16068	-271.83771	108.16068
9950.00000	108.00694	-273.72769	108.00694
10000.00000	107.82586	-276.59444	107.82586
10050.00000	107.59058	-278.89328	107.59058
10100.00000	107.36938	-281.51258	107.36938
10150.00000	107.08056	-284.69658	107.08056
10200.00000	106.94171	-287.57805	106.94171
10250.00000	106.75969	-290.65211	106.75969
10300.00000	106.72132	-293.43267	106.72132
10350.00000	106.60168	-295.74980	106.60168
10400.00000	106.42888	-298.35508	106.42888
10450.00000	106.38339	-300.97152	106.38339
10500.00000	106.26789	-303.13769	106.26789
10550.00000	106.11207	-305.73587	106.11207
10600.00000	105.89728	-307.93832	105.89728
10650.00000	105.69665	-310.18359	105.69665
10700.00000	105.55847	-313.74138	105.55847
10750.00000	105.41680	-316.93518	105.41680
10800.00000	105.21673	-319.61024	105.21673
10850.00000	105.02886	-323.11285	105.02886
10900.00000	104.87684	-325.55714	104.87684
10950.00000	104.69190	-327.35021	104.69190
11000.00000	104.48956	-329.74358	104.48956
11050.00000	104.06656	-332.17825	104.06656
11100.00000	103.75279	-334.97727	103.75279
11150.00000	103.29798	-337.43231	103.29798
11200.00000	102.97377	-340.00814	102.97377
11250.00000	102.55346	-342.56530	102.55346
11300.00000	102.15358	-344.85865	102.15358
11350.00000	101.83934	-346.43862	101.83934
11400.00000	101.44485	-348.17223	101.44485
11450.00000	101.11411	-349.81733	101.11411
11500.00000	100.84848	-350.40639	100.84848
11550.00000	100.39771	-351.21808	100.39771
11600.00000	100.16636	-353.06511	100.16636
11650.00000	99.81762	-353.32990	99.81762
11700.00000	99.56394	-354.42560	99.56394
11750.00000	99.37422	-355.51628	99.37422
11800.00000	99.17340	-356.92879	99.17340
11850.00000	99.06690	-356.83238	99.06690
11900.00000	98.74880	-358.13601	98.74880
11950.00000	98.53501	-358.70432	98.53501
12000.00000	98.28423	-359.13836	98.28423
12050.00000	98.02115	-359.72174	98.02115
12100.00000	97.83969	-361.96261	97.83969
12150.00000	97.61384	-363.31684	97.61384
12200.00000	97.47899	-364.99958	97.47899
12250.00000	97.27393	-365.74014	97.27393
12300.00000	98.22346	-367.26608	98.22346
12350.00000	96.90811	-368.31665	96.90811
12400.00000	96.65178	-368.09190	96.65178
12450.00000	96.38935	-368.53492	96.38935
12500.00000	96.05069	-369.63921	96.05069
12550.00000	95.73752	-370.61720	95.73752
12600.00000	95.31361	-371.91863	95.31361
12650.00000	95.29474	-372.20546	95.29474
12700.00000	94.91670	-373.00319	94.91670
12750.00000	94.75580	-373.43714	94.75580
12800.00000	94.41521	-373.07810	94.41521
12850.00000	93.93249	-372.92892	93.93249
12900.00000	93.71399	-373.44284	93.71399
12950.00000	93.47534	-373.99778	93.47534
13000.00000	93.41528	-374.96646	93.41528
13050.00000	93.34277	-373.37207	93.34277
13100.00000	93.09339	-372.91338	93.09339
13150.00000	93.15074	-372.59744	93.15074
13200.00000	92.86344	-371.28539	92.86344
13250.00000	92.59686	-371.40984	92.59686
13300.00000	92.32530	-368.22346	92.32530
13350.00000	92.12217	-369.16542	92.12217
13400.00000	92.12759	-368.92141	92.12759
13450.00000	91.90038	-367.85303	91.90038
13500.00000	91.99492	-366.15979	91.99492
13550.00000	91.69643	-365.23914	91.69643
13600.00000	91.92935	-363.51301	91.92935
13650.00000	91.91997	-362.19176	91.91997
13700.00000	91.69588	-360.43394	91.69588
13750.00000	91.62532	-360.15275	91.62532
13800.00000	91.55327	-359.69277	91.55327
13850.00000	91.46389	-360.10548	91.46389
13900.00000	91.59334	-358.81381	91.59334
13950.00000	91.75601	-358.27212	91.75601
14000.00000	92.25540	-355.21333	92.25540
14050.00000	92.43314	-355.14961	92.43314
14100.00000	92.57321	-352.90139	92.57321
14150.00000	92.75797	-351.90987	92.75797
14200.00000	93.17585	-350.30886	93.17585
14250.00000	93.60008	-347.98818	93.60008
14300.00000	93.84171	-347.77872	93.84171
14350.00000	93.97997	-345.82327	93.97997
14400.00000	93.93534	-346.62722	93.93534
14450.00000	94.24481	-345.27918	94.24481
14500.00000	94.55031	-345.44780	94.55031
14550.00000	95.09946	-344.96050	95.09946
14600.00000	95.40609	-345.79849	95.40609
14650.00000	96.14369	-343.81647	96.14369
14700.00000	96.55643	-348.03090	96.55643
14750.00000	96.94005	-347.71154	96.94005
14800.00000	97.28651	-347.36420	97.28651
14850.00000	97.81840	-347.42840	97.81840
14900.00000	98.33343	-348.68918	98.33343
14950.00000	98.75613	-349.54411	98.75613
15000.00000	99.23513	-351.29383	99.23513
15050.00000	99.41310	-351.97503	99.41310
15100.00000	99.90293	-353.37412	99.90293
15150.00000	100.50249	-355.82509	100.50249
15200.00000	100.87960	-355.54574	100.87960
15250.00000	101.13782	-357.95889	101.13782
15300.00000	101.71408	-359.74580	101.71408
15350.00000	102.03243	-362.64249	102.03243
15400.00000	102.29251	-363.53601	102.29251
15450.00000	102.66002	-366.41890	102.66002
15500.00000	103.13625	-368.80283	103.13625
15550.00000	103.52563	-371.70647	103.52563
15600.00000	103.85175	-374.63374	103.85175
15650.00000	104.34556	-375.50654	104.34556
15700.00000	104.48381	-379.23624	104.48381
15750.00000	104.87668	-381.32576	104.87668
15800.00000	105.17351	-383.35320	105.17351
15850.00000	105.42893	-385.77968	105.42893
15900.00000	105.61490	-389.10542	105.61490
15950.00000	105.90846	-391.48165	105.90846
16000.00000	106.13457	-393.79863	106.13457
16050.00000	106.44218	-396.35098	106.44218
16100.00000	106.52420	-399.68173	106.52420
16150.00000	106.75979	-402.40276	106.75979
16200.00000	107.06420	-405.43586	107.06420
16250.00000	107.32949	-407.79498	107.32949
16300.00000	107.66235	-410.36200	107.66235
16350.00000	107.78544	-413.13500	107.78544
16400.00000	107.99518	-415.67053	107.99518
16450.00000	108.17965	-418.27777	108.17965
16500.00000	108.35590	-421.04578	108.35590
16550.00000	108.61628	-424.37845	108.61628
16600.00000	108.80832	-426.89695	108.80832
16650.00000	108.95385	-429.72625	108.95385
16700.00000	109.17624	-432.00942	109.17624
16750.00000	109.23902	-435.08261	109.23902
16800.00000	109.44557	-438.12261	109.44557
16850.00000	109.70313	-440.75083	109.70313
16900.00000	109.88850	-443.55261	109.88850
16950.00000	110.05296	-446.14554	110.05296
17000.00000	110.08580	-449.02290	110.08580
17050.00000	110.31172	-451.22568	110.31172
17100.00000	110.40923	-453.14204	110.40923
17150.00000	110.73317	-456.61635	110.73317
17200.00000	110.90446	-459.07630	110.90446
17250.00000	111.01406	-462.31301	111.01406
17300.00000	111.26277	-465.13075	111.26277
17350.00000	111.31604	-467.76209	111.31604
17400.00000	111.56799	-470.79540	111.56799
17450.00000	111.66611	-474.12463	111.66611
17500.00000	111.87725	-476.99280	111.87725
17550.00000	112.02621	-480.06049	112.02621
17600.00000	112.25749	-482.78550	112.25749
17650.00000	112.38489	-486.72882	112.38489
17700.00000	112.51150	-490.01451	112.51150
17750.00000	112.76280	-492.63049	112.76280
17800.00000	112.78512	-496.51116	112.78512
17850.00000	112.91720	-499.39877	112.91720
17900.00000	113.00270	-502.88276	113.00270
17950.00000	113.17796	-506.56370	113.17796
18000.00000	113.26868	-510.49073	113.26868
18050.00000	113.48307	-513.42402	113.48307
18100.00000	113.47838	-517.37966	113.47838
18150.00000	113.52717	-520.23940	113.52717
18200.00000	113.53527	-524.35378	113.53527
18250.00000	113.66911	-527.13738	113.66911
18300.00000	113.76779	-530.54305	113.76779
18350.00000	113.79186	-533.90013	113.79186
18400.00000	113.75412	-537.60618	113.75412
18450.00000	113.74798	-542.21451	113.74798
18500.00000	113.79755	-545.47571	113.79755
18550.00000	113.79500	-548.32005	113.79500
18600.00000	113.89129	-552.19012	113.89129
18650.00000	113.75531	-555.18409	113.75531
18700.00000	113.73834	-559.06957	113.73834
18750.00000	113.79622	-562.34102	113.79622
18800.00000	113.89039	-565.09883	113.89039
18850.00000	113.76291	-568.83201	113.76291
18900.00000	113.72340	-572.08108	113.72340
18950.00000	113.71737	-575.97166	113.71737
19000.00000	113.55069	-578.98594	113.55069
19050.00000	113.65511	-582.44943	113.65511
19100.00000	113.55415	-585.63329	113.55415
19150.00000	113.63712	-588.82309	113.63712
19200.00000	113.53386	-591.94610	113.53386
19250.00000	113.46535	-596.44054	113.46535
19300.00000	113.32774	-599.06272	113.32774
19350.00000	113.27315	-602.49153	113.27315
19400.00000	113.14768	-605.59755	113.14768
19450.00000	113.14688	-608.41735	113.14688
19500.00000	112.97166	-612.44829	112.97166
19550.00000	112.89203	-615.53912	112.89203
19600.00000	112.86862	-619.33462	112.86862
19650.00000	112.68585	-621.99210	112.68585
19700.00000	112.46255	-625.32408	112.46255
19750.00000	112.33286	-627.85756	112.33286
19800.00000	112.29220	-631.87644	112.29220
19850.00000	112.17727	-634.55217	112.17727
19900.00000	111.97589	-638.26796	111.97589
19950.00000	111.79568	-641.21986	111.79568
20000.00000	111.64716	-644.25720	111.64716
20050.00000	111.49978	-647.16450	111.49978
20100.00000	111.24277	-650.12152	111.24277
20150.00000	111.13146	-652.12149	111.13146
20200.00000	110.90046	-655.65323	110.90046
20250.00000	110.66900	-658.28982	110.66900
20300.00000	110.39222	-660.99816	110.39222
20350.00000	110.26516	-663.70626	110.26516
20400.00000	109.98274	-665.41141	109.98274
20450.00000	109.66911	-667.91711	109.66911
20500.00000	109.51560	-670.48886	109.51560
20550.00000	109.05785	-671.88024	109.05785
20600.00000	108.91448	-673.59823	108.91448
20650.00000	108.66871	-675.37589	108.66871
20700.00000	108.37500	-676.96755	108.37500
20750.00000	108.20613	-678.27460	108.20613
20800.00000	107.95104	-679.14523	107.95104
20850.00000	107.81350	-680.32271	107.81350
20900.00000	107.55314	-681.22926	107.55314
20950.00000	107.38290	-681.55021	107.38290
21000.00000	107.23769	-682.09982	107.23769
21050.00000	107.28858	-682.26185	107.28858
21100.00000	107.19363	-682.34928	107.19363
21150.00000	107.23615	-683.15605	107.23615
21200.00000	107.29164	-683.30067	107.29164
21250.00000	107.33770	-685.17275	107.33770
21300.00000	107.47213	-685.34746	107.47213
21350.00000	107.52290	-686.18401	107.52290
21400.00000	107.60009	-687.76661	107.60009
21450.00000	107.72012	-689.11536	107.72012
21500.00000	107.86224	-690.94635	107.86224
21550.00000	107.85675	-692.10432	107.85675
21600.00000	108.01729	-694.00321	108.01729
21650.00000	108.06482	-696.01150	108.06482
21700.00000	108.14869	-697.45937	108.14869
21750.00000	108.25137	-699.37232	108.25137
21800.00000	108.32172	-701.32565	108.32172
21850.00000	108.29736	-703.16210	108.29736
21900.00000	108.40098	-705.18035	108.40098
21950.00000	108.45096	-706.99361	108.45096
22000.00000	108.55555	-708.86926	108.55555
22050.00000	108.55059	-710.36405	108.55059
22100.00000	108.56982	-712.58392	108.56982
22150.00000	108.60715	-714.38993	108.60715
22200.00000	108.72745	-716.40111	108.72745
22250.00000	108.69450	-717.72314	108.69450
22300.00000	108.59930	-719.70330	108.59930
22350.00000	108.74003	-721.79008	108.74003
22400.00000	108.80836	-723.84630	108.80836
22450.00000	108.77668	-725.34484	108.77668
22500.00000	108.74229	-726.17470	108.74229
22550.00000	108.76254	-728.11471	108.76254
22600.00000	108.78501	-730.76734	108.78501
22650.00000	108.85674	-732.40037	108.85674
