---ACOUSTIC CALIBRATION---
Filename: C:\Data\AZH DATA\AZH51\RightPrimary.calib
Date: 8/27/2019 6:15:21 PM
Format: 4
Probe Tube Correction File: C:\Data\Probe Tube Calibrations\50_ProbeTube.calib
Experiment VIs: 850
EPL_CFTS.exe V12.0.1 (2012)
DAQmx V9.6

Attenuation (dB): 40.000000
Min Freq (Hz): 50.000000
Max Freq (Hz): 49950.000000
Freq Step (Hz): 50.000000
Sample Rate (Hz): 100000.000000
[Smoothing]
Method=None
MA.Iterations=0
MA.Length=0
Loess.Length=0
Loess.Type=Linear
Loess.Robust=FALSE


Freq(Hz)	Mag(dB)	Phase(deg)	Unsmoothed(dB)

50.00000	103.60858	639.60441	103.60858
100.00000	83.29604	559.78412	83.29604
150.00000	73.81459	542.56239	73.81459
200.00000	81.59459	413.88193	81.59459
250.00000	87.37482	447.78574	87.37482
300.00000	89.06114	352.57905	89.06114
350.00000	77.88786	362.80762	77.88786
400.00000	84.32177	366.57178	84.32177
450.00000	85.13847	375.33600	85.13847
500.00000	93.07699	387.56445	93.07699
550.00000	94.16944	371.14378	94.16944
600.00000	95.42824	369.90301	95.42824
650.00000	97.53063	348.77681	97.53063
700.00000	99.88173	335.97682	99.88173
750.00000	101.48593	316.70179	101.48593
800.00000	102.74796	297.00921	102.74796
850.00000	101.65605	276.50816	101.65605
900.00000	99.69284	261.39989	99.69284
950.00000	97.99827	257.22096	97.99827
1000.00000	96.42683	257.81872	96.42683
1050.00000	94.38504	273.70750	94.38504
1100.00000	96.29506	298.13627	96.29506
1150.00000	99.46230	301.75657	99.46230
1200.00000	101.86696	296.83316	101.86696
1250.00000	103.55552	290.41155	103.55552
1300.00000	105.36569	283.58577	105.36569
1350.00000	106.59048	274.29144	106.59048
1400.00000	107.27469	267.57034	107.27469
1450.00000	108.31056	260.68421	108.31056
1500.00000	109.36985	252.73412	109.36985
1550.00000	110.20684	245.17623	110.20684
1600.00000	111.74771	236.07353	111.74771
1650.00000	112.64488	218.53525	112.64488
1700.00000	111.34032	208.60612	111.34032
1750.00000	111.10069	202.82782	111.10069
1800.00000	110.92093	198.67430	110.92093
1850.00000	110.94624	197.50022	110.94624
1900.00000	112.18624	194.07960	112.18624
1950.00000	112.86164	180.01065	112.86164
2000.00000	111.85146	168.40785	111.85146
2050.00000	110.63192	173.44246	110.63192
2100.00000	112.51344	172.24954	112.51344
2150.00000	113.07629	160.39405	113.07629
2200.00000	112.91000	150.41791	112.91000
2250.00000	112.31812	143.83182	112.31812
2300.00000	112.46734	138.01372	112.46734
2350.00000	112.14740	131.86447	112.14740
2400.00000	111.87415	126.17922	111.87415
2450.00000	111.63495	119.94783	111.63495
2500.00000	111.22332	114.41929	111.22332
2550.00000	110.74723	109.48439	110.74723
2600.00000	110.23276	105.46862	110.23276
2650.00000	109.79201	101.11922	109.79201
2700.00000	109.22641	97.48443	109.22641
2750.00000	108.69021	94.61533	108.69021
2800.00000	108.04368	91.84918	108.04368
2850.00000	107.51450	89.53723	107.51450
2900.00000	106.90216	87.48538	106.90216
2950.00000	106.28912	86.43681	106.28912
3000.00000	105.61934	85.15243	105.61934
3050.00000	104.84946	84.45647	104.84946
3100.00000	104.09526	84.88983	104.09526
3150.00000	103.02477	85.34152	103.02477
3200.00000	101.71874	90.76741	101.71874
3250.00000	100.87529	99.31039	100.87529
3300.00000	100.10369	110.91549	100.10369
3350.00000	100.25566	127.85337	100.25566
3400.00000	101.86250	145.06777	101.86250
3450.00000	104.48804	153.92749	104.48804
3500.00000	107.02946	155.67433	107.02946
3550.00000	109.12484	152.51593	109.12484
3600.00000	110.90928	149.08910	110.90928
3650.00000	112.36455	144.01571	112.36455
3700.00000	113.68746	139.20659	113.68746
3750.00000	115.00347	133.87390	115.00347
3800.00000	116.22923	127.59708	116.22923
3850.00000	117.26404	120.70335	117.26404
3900.00000	118.22805	114.01271	118.22805
3950.00000	119.15563	106.82645	119.15563
4000.00000	119.99893	99.30491	119.99893
4050.00000	120.77793	92.07641	120.77793
4100.00000	121.60156	84.57388	121.60156
4150.00000	122.59452	76.29927	122.59452
4200.00000	123.32435	66.44129	123.32435
4250.00000	124.03055	55.52206	124.03055
4300.00000	124.49508	43.47707	124.49508
4350.00000	124.63763	30.93327	124.63763
4400.00000	124.51927	19.13487	124.51927
4450.00000	124.20463	 8.29793	124.20463
4500.00000	123.79564	-1.52219	123.79564
4550.00000	123.35681	-10.66475	123.35681
4600.00000	122.85391	-19.11655	122.85391
4650.00000	122.39225	-27.14372	122.39225
4700.00000	121.87750	-35.56670	121.87750
4750.00000	121.23920	-44.12913	121.23920
4800.00000	120.40100	-52.78760	120.40100
4850.00000	119.28912	-60.47082	119.28912
4900.00000	117.95529	-66.23661	117.95529
4950.00000	116.55906	-69.49846	116.55906
5000.00000	115.29258	-70.45982	115.29258
5050.00000	114.15536	-69.91162	114.15536
5100.00000	112.92274	-65.93408	112.92274
5150.00000	112.85008	-60.82913	112.85008
5200.00000	111.99782	-55.96383	111.99782
5250.00000	113.35270	-42.19331	113.35270
5300.00000	115.85871	-49.66522	115.85871
5350.00000	116.14599	-63.01109	116.14599
5400.00000	115.62380	-70.97695	115.62380
5450.00000	115.08332	-75.63924	115.08332
5500.00000	114.65173	-78.95631	114.65173
5550.00000	114.30365	-81.62246	114.30365
5600.00000	114.02045	-84.11487	114.02045
5650.00000	113.80560	-86.35952	113.80560
5700.00000	113.58175	-88.81476	113.58175
5750.00000	113.42358	-91.00094	113.42358
5800.00000	113.24839	-93.36794	113.24839
5850.00000	113.10105	-95.72119	113.10105
5900.00000	112.96498	-98.09557	112.96498
5950.00000	112.84175	-100.35538	112.84175
6000.00000	112.71513	-102.40799	112.71513
6050.00000	112.61081	-104.57090	112.61081
6100.00000	112.54979	-106.78915	112.54979
6150.00000	112.48713	-109.10156	112.48713
6200.00000	112.41641	-111.35155	112.41641
6250.00000	112.37002	-113.81855	112.37002
6300.00000	112.32955	-116.41293	112.32955
6350.00000	112.27280	-119.20222	112.27280
6400.00000	112.18407	-121.81860	112.18407
6450.00000	112.13190	-124.50396	112.13190
6500.00000	112.03817	-127.10051	112.03817
6550.00000	111.94805	-129.73087	111.94805
6600.00000	111.86532	-132.25639	111.86532
6650.00000	111.80430	-134.69468	111.80430
6700.00000	111.73362	-137.35817	111.73362
6750.00000	111.67014	-139.85493	111.67014
6800.00000	111.62785	-142.32885	111.62785
6850.00000	111.57564	-144.89559	111.57564
6900.00000	111.52226	-147.42922	111.52226
6950.00000	111.46993	-149.80180	111.46993
7000.00000	111.44895	-152.48517	111.44895
7050.00000	111.40349	-155.08196	111.40349
7100.00000	111.37545	-157.85557	111.37545
7150.00000	111.35161	-160.57463	111.35161
7200.00000	111.31628	-163.36554	111.31628
7250.00000	111.26427	-166.22769	111.26427
7300.00000	111.24283	-169.15384	111.24283
7350.00000	111.19474	-171.98748	111.19474
7400.00000	111.15726	-175.09309	111.15726
7450.00000	111.09737	-178.15874	111.09737
7500.00000	111.03270	-181.24545	111.03270
7550.00000	110.99679	-184.25095	110.99679
7600.00000	110.92457	-187.26848	110.92457
7650.00000	110.85110	-190.35643	110.85110
7700.00000	110.78973	-193.50478	110.78973
7750.00000	110.68999	-196.57494	110.68999
7800.00000	110.59465	-199.68928	110.59465
7850.00000	110.50519	-202.69642	110.50519
7900.00000	110.41610	-205.60225	110.41610
7950.00000	110.33085	-208.70561	110.33085
8000.00000	110.25663	-211.84994	110.25663
8050.00000	110.16719	-215.26335	110.16719
8100.00000	110.09308	-218.04575	110.09308
8150.00000	109.96013	-221.11323	109.96013
8200.00000	109.87363	-224.08567	109.87363
8250.00000	109.74609	-227.52834	109.74609
8300.00000	109.64213	-230.78319	109.64213
8350.00000	109.49938	-233.95969	109.49938
8400.00000	109.33869	-237.73156	109.33869
8450.00000	109.10492	-241.28083	109.10492
8500.00000	108.89599	-244.96761	108.89599
8550.00000	108.70107	-248.42257	108.70107
8600.00000	108.45895	-252.31658	108.45895
8650.00000	108.17901	-255.83436	108.17901
8700.00000	107.93895	-259.82354	107.93895
8750.00000	107.60861	-262.21796	107.60861
8800.00000	107.35534	-265.69342	107.35534
8850.00000	107.03286	-268.75286	107.03286
8900.00000	106.73462	-271.42876	106.73462
8950.00000	106.39788	-274.39607	106.39788
9000.00000	105.98172	-277.12957	105.98172
9050.00000	105.63075	-280.12150	105.63075
9100.00000	105.22802	-282.68283	105.22802
9150.00000	104.88713	-285.32141	104.88713
9200.00000	104.58751	-287.94639	104.58751
9250.00000	104.23498	-290.45061	104.23498
9300.00000	103.96699	-292.75391	103.96699
9350.00000	103.75514	-294.94759	103.75514
9400.00000	103.39028	-296.31789	103.39028
9450.00000	103.15151	-297.53966	103.15151
9500.00000	102.94466	-297.63886	102.94466
9550.00000	102.80111	-298.07543	102.80111
9600.00000	102.67480	-299.71025	102.67480
9650.00000	102.42304	-301.48087	102.42304
9700.00000	102.11830	-302.47972	102.11830
9750.00000	101.91788	-304.82674	101.91788
9800.00000	101.64548	-306.09951	101.64548
9850.00000	101.44520	-307.46241	101.44520
9900.00000	101.14133	-309.39918	101.14133
9950.00000	101.00376	-310.38781	101.00376
10000.00000	100.88259	-312.07410	100.88259
10050.00000	100.69190	-313.17028	100.69190
10100.00000	100.52249	-314.07952	100.52249
10150.00000	100.25484	-315.58489	100.25484
10200.00000	100.05592	-316.74553	100.05592
10250.00000	99.77897	-318.48913	99.77897
10300.00000	99.65876	-320.16849	99.65876
10350.00000	99.43039	-321.82829	99.43039
10400.00000	99.20339	-324.05537	99.20339
10450.00000	99.16570	-326.21500	99.16570
10500.00000	99.15114	-328.21586	99.15114
10550.00000	99.10969	-330.17914	99.10969
10600.00000	99.03999	-331.65573	99.03999
10650.00000	98.94330	-332.67840	98.94330
10700.00000	98.86149	-335.00334	98.86149
10750.00000	98.75826	-336.50123	98.75826
10800.00000	98.57723	-338.10421	98.57723
10850.00000	98.41000	-340.90895	98.41000
10900.00000	98.25328	-342.78140	98.25328
10950.00000	98.10883	-344.74255	98.10883
11000.00000	97.97713	-346.93965	97.97713
11050.00000	97.70266	-348.98475	97.70266
11100.00000	97.52029	-351.26624	97.52029
11150.00000	97.23861	-352.96993	97.23861
11200.00000	97.06837	-354.60025	97.06837
11250.00000	96.73268	-356.59503	96.73268
11300.00000	96.41123	-358.38957	96.41123
11350.00000	96.10305	-359.76610	96.10305
11400.00000	95.71455	-361.53883	95.71455
11450.00000	95.45967	-363.60833	95.45967
11500.00000	95.30346	-364.40988	95.30346
11550.00000	94.96302	-365.40347	94.96302
11600.00000	94.81776	-367.02766	94.81776
11650.00000	94.54973	-367.04884	94.54973
11700.00000	94.37908	-367.65212	94.37908
11750.00000	94.21114	-368.35492	94.21114
11800.00000	94.01215	-369.26402	94.01215
11850.00000	93.90141	-369.01303	93.90141
11900.00000	93.58766	-370.30702	93.58766
11950.00000	93.47777	-370.52404	93.47777
12000.00000	93.28447	-371.00799	93.28447
12050.00000	93.11626	-371.19639	93.11626
12100.00000	93.05749	-372.63145	93.05749
12150.00000	92.94496	-373.45168	92.94496
12200.00000	92.96218	-374.66334	92.96218
12250.00000	92.87191	-374.99162	92.87191
12300.00000	93.94327	-376.05903	93.94327
12350.00000	92.76358	-376.95603	92.76358
12400.00000	92.68729	-376.99530	92.68729
12450.00000	92.63741	-377.71033	92.63741
12500.00000	92.55784	-379.48294	92.55784
12550.00000	92.47154	-380.67493	92.47154
12600.00000	92.33378	-382.62058	92.33378
12650.00000	92.45262	-383.94555	92.45262
12700.00000	92.30390	-385.41573	92.30390
12750.00000	92.14384	-387.09564	92.14384
12800.00000	92.05786	-388.17466	92.05786
12850.00000	91.65567	-389.24465	91.65567
12900.00000	91.51512	-391.27873	91.51512
12950.00000	91.30525	-392.74880	91.30525
13000.00000	91.13921	-394.62539	91.13921
13050.00000	91.03142	-394.90582	91.03142
13100.00000	90.76280	-396.11354	90.76280
13150.00000	90.62652	-398.07736	90.62652
13200.00000	90.40012	-397.36526	90.40012
13250.00000	90.27274	-398.20763	90.27274
13300.00000	89.89751	-396.70710	89.89751
13350.00000	89.61482	-398.14903	89.61482
13400.00000	89.62693	-398.20899	89.62693
13450.00000	89.31881	-397.83619	89.31881
13500.00000	89.22121	-396.54752	89.22121
13550.00000	88.99745	-397.23768	88.99745
13600.00000	88.86060	-396.18708	88.86060
13650.00000	88.72673	-395.68791	88.72673
13700.00000	88.40130	-395.94786	88.40130
13750.00000	88.39867	-396.22336	88.39867
13800.00000	88.29959	-397.85828	88.29959
13850.00000	88.29571	-398.16028	88.29571
13900.00000	88.21859	-397.06133	88.21859
13950.00000	88.14575	-395.48943	88.14575
14000.00000	88.25112	-394.13544	88.25112
14050.00000	88.20406	-393.51225	88.20406
14100.00000	88.14474	-392.80989	88.14474
14150.00000	88.28447	-392.78937	88.28447
14200.00000	88.44339	-391.67362	88.44339
14250.00000	88.89470	-390.14000	88.89470
14300.00000	88.81692	-389.15405	88.81692
14350.00000	89.18361	-387.37639	89.18361
14400.00000	88.78802	-388.59782	88.78802
14450.00000	88.95750	-385.46567	88.95750
14500.00000	89.02040	-387.81302	89.02040
14550.00000	89.19307	-385.72588	89.19307
14600.00000	89.29941	-387.43711	89.29941
14650.00000	89.75150	-384.18793	89.75150
14700.00000	90.15237	-389.18546	90.15237
14750.00000	90.22071	-387.33815	90.22071
14800.00000	90.48266	-385.96279	90.48266
14850.00000	90.74836	-386.70132	90.74836
14900.00000	91.09132	-386.95742	91.09132
14950.00000	91.43366	-387.92848	91.43366
15000.00000	91.87267	-388.30506	91.87267
15050.00000	91.86830	-386.32279	91.86830
15100.00000	92.21363	-386.49933	92.21363
15150.00000	92.52958	-388.41732	92.52958
15200.00000	92.75563	-387.52057	92.75563
15250.00000	92.90909	-388.86918	92.90909
15300.00000	93.51168	-390.28570	93.51168
15350.00000	93.74133	-391.03057	93.74133
15400.00000	93.87377	-390.65220	93.87377
15450.00000	94.16592	-391.90842	94.16592
15500.00000	94.60676	-392.84688	94.60676
15550.00000	94.99217	-394.76264	94.99217
15600.00000	95.35718	-395.62327	95.35718
15650.00000	95.84406	-395.23231	95.84406
15700.00000	96.02147	-397.48717	96.02147
15750.00000	96.49685	-399.02310	96.49685
15800.00000	96.87957	-400.11228	96.87957
15850.00000	97.23872	-401.73499	97.23872
15900.00000	97.48297	-404.48865	97.48297
15950.00000	97.89360	-406.15840	97.89360
16000.00000	98.24528	-407.76837	98.24528
16050.00000	98.63110	-409.98462	98.63110
16100.00000	98.83871	-412.38383	98.83871
16150.00000	99.09172	-414.82648	99.09172
16200.00000	99.38679	-418.24976	99.38679
16250.00000	99.70579	-420.20484	99.70579
16300.00000	100.14993	-422.76031	100.14993
16350.00000	100.39362	-424.95880	100.39362
16400.00000	100.60166	-426.95390	100.60166
16450.00000	100.83657	-429.65513	100.83657
16500.00000	101.03035	-432.31321	101.03035
16550.00000	101.38420	-435.48410	101.38420
16600.00000	101.62260	-437.85578	101.62260
16650.00000	101.82298	-440.30133	101.82298
16700.00000	102.06654	-442.79414	102.06654
16750.00000	102.20401	-445.65325	102.20401
16800.00000	102.42416	-448.96869	102.42416
16850.00000	102.71398	-451.68345	102.71398
16900.00000	102.95833	-454.48527	102.95833
16950.00000	103.18591	-457.48281	103.18591
17000.00000	103.22615	-460.51758	103.22615
17050.00000	103.44470	-462.48084	103.44470
17100.00000	103.54326	-464.28812	103.54326
17150.00000	103.85164	-468.20744	103.85164
17200.00000	104.03434	-470.92630	104.03434
17250.00000	104.16606	-474.56381	104.16606
17300.00000	104.40821	-477.19688	104.40821
17350.00000	104.42369	-479.79686	104.42369
17400.00000	104.66857	-482.96918	104.66857
17450.00000	104.74422	-486.32760	104.74422
17500.00000	104.93058	-489.32142	104.93058
17550.00000	105.05711	-492.46796	105.05711
17600.00000	105.29480	-495.03375	105.29480
17650.00000	105.38363	-498.99383	105.38363
17700.00000	105.48739	-502.23402	105.48739
17750.00000	105.71667	-504.94354	105.71667
17800.00000	105.69955	-508.79188	105.69955
17850.00000	105.84290	-511.41334	105.84290
17900.00000	105.90208	-514.84414	105.90208
17950.00000	106.07697	-518.15305	106.07697
18000.00000	106.11299	-521.78096	106.11299
18050.00000	106.33297	-524.88321	106.33297
18100.00000	106.33741	-528.59921	106.33741
18150.00000	106.38562	-531.38194	106.38562
18200.00000	106.40211	-535.39588	106.40211
18250.00000	106.51741	-537.97529	106.51741
18300.00000	106.63844	-541.45402	106.63844
18350.00000	106.69510	-544.80272	106.69510
18400.00000	106.66660	-548.67458	106.66660
18450.00000	106.65534	-553.19845	106.65534
18500.00000	106.69503	-556.63333	106.69503
18550.00000	106.68413	-559.76693	106.68413
18600.00000	106.78885	-563.73854	106.78885
18650.00000	106.60799	-566.99606	106.60799
18700.00000	106.54799	-570.92073	106.54799
18750.00000	106.54021	-574.38732	106.54021
18800.00000	106.56294	-577.28980	106.56294
18850.00000	106.37865	-580.91473	106.37865
18900.00000	106.25687	-584.27832	106.25687
18950.00000	106.17207	-587.79089	106.17207
19000.00000	105.89388	-590.49924	105.89388
19050.00000	105.90976	-593.62108	105.90976
19100.00000	105.73866	-596.31151	105.73866
19150.00000	105.74500	-598.83244	105.74500
19200.00000	105.58965	-601.14214	105.58965
19250.00000	105.44165	-604.82590	105.44165
19300.00000	105.27148	-606.66627	105.27148
19350.00000	105.20555	-609.22814	105.20555
19400.00000	105.08852	-611.43583	105.08852
19450.00000	105.10815	-613.28918	105.10815
19500.00000	104.93481	-616.54094	104.93481
19550.00000	104.90228	-618.61145	104.90228
19600.00000	104.91290	-621.54923	104.91290
19650.00000	104.82536	-623.51768	104.82536
19700.00000	104.67387	-625.98175	104.67387
19750.00000	104.60474	-627.83298	104.60474
19800.00000	104.65751	-630.96942	104.65751
19850.00000	104.64186	-633.22491	104.64186
19900.00000	104.53304	-636.41399	104.53304
19950.00000	104.48603	-638.89552	104.48603
20000.00000	104.44663	-641.48055	104.44663
20050.00000	104.39172	-643.90612	104.39172
20100.00000	104.27219	-646.70861	104.27219
20150.00000	104.25583	-648.52263	104.25583
20200.00000	104.14928	-651.84378	104.14928
20250.00000	104.01516	-654.37762	104.01516
20300.00000	103.83626	-656.86280	103.83626
20350.00000	103.80929	-659.74874	103.80929
20400.00000	103.63244	-661.43423	103.63244
20450.00000	103.44105	-663.90964	103.44105
20500.00000	103.37669	-666.57768	103.37669
20550.00000	102.99440	-668.07961	102.99440
20600.00000	102.92851	-669.99555	102.92851
20650.00000	102.76858	-671.90338	102.76858
20700.00000	102.55843	-673.64953	102.55843
20750.00000	102.45723	-675.08442	102.45723
20800.00000	102.26697	-676.18933	102.26697
20850.00000	102.18286	-677.64249	102.18286
20900.00000	102.01012	-678.80045	102.01012
20950.00000	101.87239	-679.22511	101.87239
21000.00000	101.81533	-680.02359	101.81533
21050.00000	101.91372	-680.46165	101.91372
21100.00000	101.89019	-681.11159	101.89019
21150.00000	101.99164	-682.11089	101.99164
21200.00000	102.08737	-682.74583	102.08737
21250.00000	102.18568	-684.87391	102.18568
21300.00000	102.36517	-685.72703	102.36517
21350.00000	102.46857	-687.06593	102.46857
21400.00000	102.57674	-689.19115	102.57674
21450.00000	102.70677	-691.19534	102.70677
21500.00000	102.83282	-693.61608	102.83282
21550.00000	102.82569	-695.40440	102.82569
21600.00000	102.97485	-697.98994	102.97485
21650.00000	103.00622	-700.59913	103.00622
21700.00000	103.01482	-702.70629	103.01482
21750.00000	103.04580	-705.12609	103.04580
21800.00000	103.07051	-707.71996	103.07051
21850.00000	103.02974	-709.87756	103.02974
21900.00000	103.00845	-712.18543	103.00845
21950.00000	102.97149	-714.25727	102.97149
22000.00000	102.97591	-716.39314	102.97591
22050.00000	102.92727	-718.13550	102.92727
22100.00000	102.87217	-720.55170	102.87217
22150.00000	102.76832	-722.53826	102.76832
22200.00000	102.88682	-724.36191	102.88682
22250.00000	102.78835	-726.00294	102.78835
22300.00000	102.66521	-728.06979	102.66521
22350.00000	102.78433	-730.14985	102.78433
22400.00000	102.75135	-732.19793	102.75135
22450.00000	102.69982	-733.76032	102.69982
22500.00000	102.61268	-734.96568	102.61268
22550.00000	102.58973	-737.06268	102.58973
22600.00000	102.61584	-739.96648	102.61584
22650.00000	102.53768	-741.38567	102.53768
22700.00000	102.51804	-743.06618	102.51804
22750.00000	102.42799	-742.01484	102.42799
22800.00000	102.49446	-747.46775	102.49446
