---ACOUSTIC CALIBRATION---
Filename: C:\Data\AZH DATA\AZH42\RightPrimary.calib
Date: 8/27/2019 2:45:50 PM
Format: 4
Probe Tube Correction File: C:\Data\Probe Tube Calibrations\50_ProbeTube.calib
Experiment VIs: 850
EPL_CFTS.exe V12.0.1 (2012)
DAQmx V9.6

Attenuation (dB): 40.000000
Min Freq (Hz): 50.000000
Max Freq (Hz): 49950.000000
Freq Step (Hz): 50.000000
Sample Rate (Hz): 100000.000000
[Smoothing]
Method=None
MA.Iterations=0
MA.Length=0
Loess.Length=0
Loess.Type=Linear
Loess.Robust=FALSE


Freq(Hz)	Mag(dB)	Phase(deg)	Unsmoothed(dB)

50.00000	106.38197	381.61829	106.38197
100.00000	70.25817	241.70127	70.25817
150.00000	75.58621	81.03139	75.58621
200.00000	85.60709	71.89616	85.60709
250.00000	89.80259	72.76024	89.80259
300.00000	90.60890	14.80392	90.60890
350.00000	83.34639	23.21519	83.34639
400.00000	88.46552	17.10011	88.46552
450.00000	88.46260	13.94758	88.46260
500.00000	89.20960	16.00555	89.20960
550.00000	91.24509	14.68162	91.24509
600.00000	96.04328	 7.58561	96.04328
650.00000	96.67156	-8.24363	96.67156
700.00000	99.02388	-24.53805	99.02388
750.00000	100.76653	-41.94979	100.76653
800.00000	101.99132	-67.17368	101.99132
850.00000	100.93894	-83.40711	100.93894
900.00000	99.60356	-97.64419	99.60356
950.00000	97.65913	-102.29027	97.65913
1000.00000	96.13786	-102.17042	96.13786
1050.00000	93.95036	-84.52325	93.95036
1100.00000	95.72073	-65.49743	95.72073
1150.00000	98.81825	-59.68861	98.81825
1200.00000	101.35287	-63.85812	101.35287
1250.00000	103.15173	-69.81020	103.15173
1300.00000	104.85452	-75.86957	104.85452
1350.00000	106.09331	-84.97486	106.09331
1400.00000	106.88371	-93.97011	106.88371
1450.00000	107.81623	-99.02100	107.81623
1500.00000	108.98795	-105.67793	108.98795
1550.00000	109.69962	-114.15193	109.69962
1600.00000	111.21356	-124.90244	111.21356
1650.00000	112.17416	-140.62152	112.17416
1700.00000	110.99365	-150.97143	110.99365
1750.00000	110.67772	-156.26138	110.67772
1800.00000	110.45810	-161.35556	110.45810
1850.00000	110.56036	-162.21333	110.56036
1900.00000	111.75522	-166.42720	111.75522
1950.00000	112.37183	-179.46265	112.37183
2000.00000	111.45785	-191.30886	111.45785
2050.00000	110.13120	-187.02692	110.13120
2100.00000	111.98288	-187.12958	111.98288
2150.00000	112.59634	-198.34615	112.59634
2200.00000	112.46444	-208.64092	112.46444
2250.00000	111.86995	-215.27630	111.86995
2300.00000	111.99455	-221.12116	111.99455
2350.00000	111.76896	-227.17859	111.76896
2400.00000	111.55107	-233.32808	111.55107
2450.00000	111.15430	-239.25163	111.15430
2500.00000	110.83302	-244.84942	110.83302
2550.00000	110.29450	-249.96040	110.29450
2600.00000	109.81856	-254.23104	109.81856
2650.00000	109.33280	-258.02834	109.33280
2700.00000	108.76128	-261.52942	108.76128
2750.00000	108.18789	-264.95587	108.18789
2800.00000	107.51551	-267.32994	107.51551
2850.00000	106.89477	-269.57806	106.89477
2900.00000	106.32670	-271.56961	106.32670
2950.00000	105.61336	-272.89463	105.61336
3000.00000	104.82647	-273.24439	104.82647
3050.00000	103.92773	-273.90176	103.92773
3100.00000	103.04615	-271.61384	103.04615
3150.00000	101.75938	-268.38277	101.75938
3200.00000	100.59875	-258.96326	100.59875
3250.00000	100.24176	-247.26011	100.24176
3300.00000	100.30759	-234.25072	100.30759
3350.00000	101.39536	-220.20250	101.39536
3400.00000	103.48973	-206.74637	103.48973
3450.00000	105.93265	-202.94714	105.93265
3500.00000	108.37427	-203.14722	108.37427
3550.00000	110.27411	-207.53734	110.27411
3600.00000	111.97364	-212.20209	111.97364
3650.00000	113.32802	-217.94552	113.32802
3700.00000	114.59194	-223.64563	114.59194
3750.00000	115.86495	-229.83393	115.86495
3800.00000	116.92484	-237.06592	116.92484
3850.00000	117.82441	-244.35308	117.82441
3900.00000	118.65981	-251.30238	118.65981
3950.00000	119.51245	-258.34276	119.51245
4000.00000	120.25582	-265.98169	120.25582
4050.00000	120.98529	-273.38088	120.98529
4100.00000	121.75676	-280.95829	121.75676
4150.00000	122.68462	-289.62412	122.68462
4200.00000	123.29466	-299.91841	123.29466
4250.00000	123.84000	-310.97149	123.84000
4300.00000	124.14675	-322.62170	124.14675
4350.00000	124.15933	-334.49476	124.15933
4400.00000	123.95852	-345.32213	123.95852
4450.00000	123.61477	-355.40218	123.61477
4500.00000	123.21931	-364.39609	123.21931
4550.00000	122.80942	-372.93287	122.80942
4600.00000	122.35458	-381.01578	122.35458
4650.00000	121.93591	-388.67118	121.93591
4700.00000	121.47179	-396.77621	121.47179
4750.00000	120.88680	-405.17492	120.88680
4800.00000	120.09856	-413.55174	120.09856
4850.00000	119.03536	-421.21938	119.03536
4900.00000	117.75461	-427.02068	117.75461
4950.00000	116.42361	-430.17387	116.42361
5000.00000	115.18746	-431.01806	115.18746
5050.00000	114.13957	-430.80827	114.13957
5100.00000	112.96953	-427.27797	112.96953
5150.00000	112.93889	-421.67845	112.93889
5200.00000	112.32982	-417.53588	112.32982
5250.00000	113.83929	-407.29273	113.83929
5300.00000	115.77889	-416.73460	115.77889
5350.00000	115.72783	-428.21890	115.72783
5400.00000	115.15742	-434.67675	115.15742
5450.00000	114.64894	-438.34133	114.64894
5500.00000	114.28694	-441.24340	114.28694
5550.00000	114.00962	-443.69607	114.00962
5600.00000	113.75998	-446.01742	113.75998
5650.00000	113.56574	-448.34861	113.56574
5700.00000	113.39426	-450.69368	113.39426
5750.00000	113.25225	-452.97872	113.25225
5800.00000	113.09049	-455.29039	113.09049
5850.00000	112.96043	-457.55840	112.96043
5900.00000	112.86001	-459.82497	112.86001
5950.00000	112.76702	-462.06117	112.76702
6000.00000	112.70416	-464.15009	112.70416
6050.00000	112.64170	-466.29827	112.64170
6100.00000	112.65088	-468.75023	112.65088
6150.00000	112.62003	-471.60475	112.62003
6200.00000	112.58588	-474.26035	112.58588
6250.00000	112.54121	-477.12744	112.54121
6300.00000	112.49659	-479.87485	112.49659
6350.00000	112.40845	-482.74604	112.40845
6400.00000	112.33445	-485.61816	112.33445
6450.00000	112.27382	-488.42100	112.27382
6500.00000	112.21844	-491.42118	112.21844
6550.00000	112.13106	-494.00463	112.13106
6600.00000	112.06071	-496.65231	112.06071
6650.00000	112.02806	-499.27452	112.02806
6700.00000	111.95270	-502.37947	111.95270
6750.00000	111.90957	-505.21501	111.90957
6800.00000	111.85314	-507.86478	111.85314
6850.00000	111.81549	-510.60984	111.81549
6900.00000	111.77011	-513.59983	111.77011
6950.00000	111.73849	-516.39579	111.73849
7000.00000	111.69876	-519.07570	111.69876
7050.00000	111.65899	-522.47094	111.65899
7100.00000	111.62306	-525.59445	111.62306
7150.00000	111.61386	-528.43210	111.61386
7200.00000	111.55978	-531.76884	111.55978
7250.00000	111.52094	-535.23280	111.52094
7300.00000	111.45892	-538.68613	111.45892
7350.00000	111.39352	-542.14592	111.39352
7400.00000	111.34186	-545.74565	111.34186
7450.00000	111.25230	-549.50973	111.25230
7500.00000	111.15199	-553.02079	111.15199
7550.00000	111.04401	-556.84362	111.04401
7600.00000	110.89650	-560.69782	110.89650
7650.00000	110.72668	-564.30376	110.72668
7700.00000	110.59623	-568.25877	110.59623
7750.00000	110.33344	-572.00802	110.33344
7800.00000	110.11649	-575.57968	110.11649
7850.00000	109.84625	-579.08371	109.84625
7900.00000	109.62908	-582.42675	109.62908
7950.00000	109.36932	-585.85750	109.36932
8000.00000	109.06304	-589.22209	109.06304
8050.00000	108.76293	-592.63928	108.76293
8100.00000	108.48470	-595.30022	108.48470
8150.00000	108.12154	-597.97055	108.12154
8200.00000	107.78969	-600.08912	107.78969
8250.00000	107.43133	-602.95840	107.43133
8300.00000	107.12462	-604.97337	107.12462
8350.00000	106.77358	-607.08011	106.77358
8400.00000	106.45204	-609.48171	106.45204
8450.00000	106.08563	-611.35166	106.08563
8500.00000	105.75493	-613.62933	105.75493
8550.00000	105.59959	-615.56241	105.59959
8600.00000	105.32712	-617.79202	105.32712
8650.00000	105.11398	-619.61674	105.11398
8700.00000	104.96726	-622.28036	104.96726
8750.00000	104.71444	-623.38276	104.71444
8800.00000	104.55522	-625.48354	104.55522
8850.00000	104.31038	-627.19799	104.31038
8900.00000	104.11163	-628.49941	104.11163
8950.00000	103.91722	-630.56135	103.91722
9000.00000	103.57164	-632.28500	103.57164
9050.00000	103.33613	-634.60818	103.33613
9100.00000	103.06251	-636.18863	103.06251
9150.00000	102.85651	-638.45074	102.85651
9200.00000	102.67072	-641.29659	102.67072
9250.00000	102.46399	-643.57069	102.46399
9300.00000	102.37087	-646.12207	102.37087
9350.00000	102.24086	-648.26081	102.24086
9400.00000	102.03047	-649.67666	102.03047
9450.00000	101.96122	-650.92568	101.96122
9500.00000	101.89656	-651.08543	101.89656
9550.00000	101.86028	-651.30737	101.86028
9600.00000	101.80980	-653.31260	101.80980
9650.00000	101.58669	-654.97519	101.58669
9700.00000	101.41038	-655.90492	101.41038
9750.00000	101.25483	-658.33300	101.25483
9800.00000	101.04854	-659.93612	101.04854
9850.00000	100.91140	-661.83341	100.91140
9900.00000	100.67313	-664.14224	100.67313
9950.00000	100.64503	-665.16073	100.64503
10000.00000	100.62734	-667.58930	100.62734
10050.00000	100.55418	-668.74154	100.55418
10100.00000	100.47465	-669.98070	100.47465
10150.00000	100.26730	-671.69894	100.26730
10200.00000	100.11351	-673.03876	100.11351
10250.00000	99.93346	-674.86570	99.93346
10300.00000	99.85998	-676.95700	99.85998
10350.00000	99.67296	-678.75246	99.67296
10400.00000	99.49325	-681.52696	99.49325
10450.00000	99.46748	-684.43194	99.46748
10500.00000	99.51886	-686.73801	99.51886
10550.00000	99.48178	-689.25503	99.48178
10600.00000	99.39666	-691.17985	99.39666
10650.00000	99.32937	-692.89968	99.32937
10700.00000	99.29050	-695.64353	99.29050
10750.00000	99.19914	-697.82204	99.19914
10800.00000	98.98064	-699.81868	98.98064
10850.00000	98.83360	-702.94663	98.83360
10900.00000	98.67637	-705.35475	98.67637
10950.00000	98.49964	-707.60914	98.49964
11000.00000	98.36475	-709.85950	98.36475
11050.00000	98.06895	-712.39442	98.06895
11100.00000	97.87471	-715.01044	97.87471
11150.00000	97.60194	-716.93656	97.60194
11200.00000	97.41549	-718.81150	97.41549
11250.00000	97.08995	-721.00220	97.08995
11300.00000	96.73857	-723.30307	96.73857
11350.00000	96.43778	-724.91850	96.43778
11400.00000	96.09269	-726.74324	96.09269
11450.00000	95.88925	-728.70717	95.88925
11500.00000	95.71859	-729.82822	95.71859
11550.00000	95.36985	-730.99378	95.36985
11600.00000	95.25081	-732.96461	95.25081
11650.00000	95.04810	-733.20583	95.04810
11700.00000	94.86885	-734.31685	94.86885
11750.00000	94.68020	-735.27646	94.68020
11800.00000	94.48654	-737.06643	94.48654
11850.00000	94.43125	-737.32127	94.43125
11900.00000	94.08860	-739.05211	94.08860
11950.00000	93.99956	-739.83716	93.99956
12000.00000	93.74387	-740.24934	93.74387
12050.00000	93.54076	-741.18405	93.54076
12100.00000	93.39339	-743.18380	93.39339
12150.00000	93.23746	-744.33715	93.23746
12200.00000	93.26355	-745.96178	93.26355
12250.00000	93.16906	-746.87579	93.16906
12300.00000	94.31839	-748.83204	94.31839
12350.00000	93.09502	-750.12819	93.09502
12400.00000	93.06664	-750.38209	93.06664
12450.00000	92.86604	-751.61809	92.86604
12500.00000	92.84199	-753.54680	92.84199
12550.00000	92.66180	-754.65511	92.66180
12600.00000	92.46001	-757.71542	92.46001
12650.00000	92.49766	-759.42289	92.49766
12700.00000	92.34112	-762.01502	92.34112
12750.00000	92.10094	-764.67213	92.10094
12800.00000	91.98527	-766.31365	91.98527
12850.00000	91.46342	-768.24378	91.46342
12900.00000	91.37249	-769.85024	91.37249
12950.00000	91.03494	-772.71409	91.03494
13000.00000	90.68357	-774.58041	90.68357
13050.00000	90.47190	-774.18654	90.47190
13100.00000	90.12012	-777.76049	90.12012
13150.00000	89.76318	-778.90122	89.76318
13200.00000	89.40330	-778.71847	89.40330
13250.00000	88.93688	-779.54590	88.93688
13300.00000	88.79469	-778.84219	88.79469
13350.00000	88.39652	-780.23629	88.39652
13400.00000	88.24453	-781.04348	88.24453
13450.00000	87.57445	-779.72627	87.57445
13500.00000	87.73430	-778.71170	87.73430
13550.00000	86.93196	-777.69076	86.93196
13600.00000	86.75874	-777.06562	86.75874
13650.00000	86.55292	-776.97808	86.55292
13700.00000	86.11685	-777.83079	86.11685
13750.00000	85.91083	-777.48019	85.91083
13800.00000	85.67814	-778.12718	85.67814
13850.00000	85.55813	-777.39672	85.55813
13900.00000	85.43627	-776.96480	85.43627
13950.00000	85.28874	-774.33132	85.28874
14000.00000	85.40466	-771.58604	85.40466
14050.00000	85.13564	-773.28012	85.13564
14100.00000	84.90666	-772.17617	84.90666
14150.00000	84.82899	-771.57106	84.82899
14200.00000	85.09595	-769.78416	85.09595
14250.00000	85.42376	-765.93497	85.42376
14300.00000	85.21730	-764.20798	85.21730
14350.00000	85.29770	-762.35174	85.29770
14400.00000	85.05028	-761.82820	85.05028
14450.00000	84.93373	-760.13955	84.93373
14500.00000	84.80192	-761.48519	84.80192
14550.00000	85.36989	-759.83130	85.36989
14600.00000	85.36998	-760.84977	85.36998
14650.00000	85.67840	-755.40858	85.67840
14700.00000	85.58735	-759.95597	85.58735
14750.00000	85.75901	-757.98964	85.75901
14800.00000	85.87985	-755.20879	85.87985
14850.00000	86.08419	-754.56363	86.08419
14900.00000	86.55278	-754.22333	86.55278
14950.00000	86.81396	-753.80624	86.81396
15000.00000	87.01847	-754.33367	87.01847
15050.00000	87.30121	-750.41136	87.30121
15100.00000	87.31474	-750.76490	87.31474
15150.00000	87.68468	-750.55597	87.68468
15200.00000	87.88578	-749.08679	87.88578
15250.00000	88.10853	-750.31246	88.10853
15300.00000	88.71454	-750.45600	88.71454
15350.00000	89.06791	-750.29451	89.06791
15400.00000	89.26987	-748.53518	89.26987
15450.00000	89.55429	-749.77073	89.55429
15500.00000	90.02478	-749.61624	90.02478
15550.00000	90.43062	-749.74973	90.43062
15600.00000	90.74462	-751.76143	90.74462
15650.00000	91.28937	-750.85318	91.28937
15700.00000	91.57850	-751.58952	91.57850
15750.00000	92.15651	-750.93669	92.15651
15800.00000	92.56322	-751.24234	92.56322
15850.00000	92.87959	-751.72587	92.87959
15900.00000	93.16770	-753.04896	93.16770
15950.00000	93.64751	-755.23166	93.64751
16000.00000	94.16075	-756.37308	94.16075
16050.00000	94.68104	-757.41749	94.68104
16100.00000	95.03645	-758.43235	95.03645
16150.00000	95.33508	-760.37980	95.33508
16200.00000	95.81880	-763.11389	95.81880
16250.00000	96.24754	-765.22851	96.24754
16300.00000	96.81165	-766.87378	96.81165
16350.00000	97.28451	-769.16211	97.28451
16400.00000	97.62373	-771.00358	97.62373
16450.00000	97.96640	-772.98882	97.96640
16500.00000	98.36241	-775.67693	98.36241
16550.00000	98.82428	-779.19325	98.82428
16600.00000	99.19008	-782.14813	99.19008
16650.00000	99.49382	-784.69553	99.49382
16700.00000	99.79880	-787.14245	99.79880
16750.00000	99.98430	-790.37444	99.98430
16800.00000	100.35914	-793.86416	100.35914
16850.00000	100.73114	-796.79401	100.73114
16900.00000	101.00901	-800.11258	101.00901
16950.00000	101.27371	-803.39379	101.27371
17000.00000	101.42608	-806.84699	101.42608
17050.00000	101.67407	-809.33027	101.67407
17100.00000	101.80076	-811.64767	101.80076
17150.00000	102.12677	-815.75326	102.12677
17200.00000	102.25078	-818.91926	102.25078
17250.00000	102.38706	-822.55348	102.38706
17300.00000	102.64394	-825.43882	102.64394
17350.00000	102.63170	-827.95640	102.63170
17400.00000	102.85885	-831.15019	102.85885
17450.00000	102.92022	-834.71381	102.92022
17500.00000	103.09754	-837.75149	103.09754
17550.00000	103.26117	-840.64937	103.26117
17600.00000	103.48594	-843.16803	103.48594
17650.00000	103.61028	-847.02678	103.61028
17700.00000	103.69660	-850.22192	103.69660
17750.00000	103.92038	-852.64377	103.92038
17800.00000	103.93117	-856.44016	103.93117
17850.00000	104.11782	-858.93490	104.11782
17900.00000	104.18546	-862.05728	104.18546
17950.00000	104.38548	-865.52419	104.38548
18000.00000	104.45295	-869.35923	104.45295
18050.00000	104.68540	-872.02776	104.68540
18100.00000	104.70534	-875.78410	104.70534
18150.00000	104.81413	-878.40226	104.81413
18200.00000	104.83037	-882.46425	104.83037
18250.00000	104.95577	-884.75763	104.95577
18300.00000	105.08891	-887.83663	105.08891
18350.00000	105.13579	-891.23304	105.13579
18400.00000	105.17474	-894.59690	105.17474
18450.00000	105.19532	-899.13825	105.19532
18500.00000	105.28214	-902.12938	105.28214
18550.00000	105.30241	-904.90268	105.30241
18600.00000	105.45400	-908.40572	105.45400
18650.00000	105.32916	-911.61438	105.32916
18700.00000	105.36626	-915.34599	105.36626
18750.00000	105.42391	-918.56862	105.42391
18800.00000	105.56456	-921.31971	105.56456
18850.00000	105.42194	-924.77286	105.42194
18900.00000	105.40563	-927.81784	105.40563
18950.00000	105.44009	-931.57026	105.44009
19000.00000	105.29928	-934.27965	105.29928
19050.00000	105.43149	-937.64723	105.43149
19100.00000	105.34125	-940.55086	105.34125
19150.00000	105.45174	-943.47762	105.45174
19200.00000	105.40174	-946.40336	105.40174
19250.00000	105.34747	-950.55625	105.34747
19300.00000	105.28530	-952.96470	105.28530
19350.00000	105.25334	-956.05125	105.25334
19400.00000	105.19577	-958.85342	105.19577
19450.00000	105.26692	-961.42183	105.26692
19500.00000	105.12977	-965.15928	105.12977
19550.00000	105.11744	-968.10644	105.11744
19600.00000	105.12707	-971.66487	105.12707
19650.00000	105.04620	-974.14882	105.04620
19700.00000	104.88331	-977.27418	104.88331
19750.00000	104.81154	-979.61245	104.81154
19800.00000	104.82533	-983.33234	104.82533
19850.00000	104.78770	-986.02265	104.78770
19900.00000	104.65932	-989.65364	104.65932
19950.00000	104.55405	-992.39427	104.55405
20000.00000	104.46816	-995.28675	104.46816
20050.00000	104.40505	-998.20136	104.40505
20100.00000	104.19482	-1001.07541	104.19482
20150.00000	104.15892	-1002.94501	104.15892
20200.00000	103.99104	-1006.41838	103.99104
20250.00000	103.85531	-1008.99769	103.85531
20300.00000	103.62007	-1011.59512	103.62007
20350.00000	103.53982	-1014.32224	103.53982
20400.00000	103.34346	-1016.05732	103.34346
20450.00000	103.10584	-1018.45257	103.10584
20500.00000	103.00574	-1020.97103	103.00574
20550.00000	102.61458	-1022.43577	102.61458
20600.00000	102.53764	-1024.16096	102.53764
20650.00000	102.36840	-1025.74615	102.36840
20700.00000	102.14854	-1027.19331	102.14854
20750.00000	102.04230	-1028.68436	102.04230
20800.00000	101.86468	-1029.44395	101.86468
20850.00000	101.79806	-1030.61577	101.79806
20900.00000	101.64891	-1031.51237	101.64891
20950.00000	101.56577	-1031.85826	101.56577
21000.00000	101.52727	-1032.29614	101.52727
21050.00000	101.66772	-1032.62117	101.66772
21100.00000	101.71016	-1033.02077	101.71016
21150.00000	101.88718	-1033.95808	101.88718
21200.00000	102.06563	-1034.56244	102.06563
21250.00000	102.22119	-1036.85827	102.22119
21300.00000	102.46742	-1037.83893	102.46742
21350.00000	102.63432	-1039.41560	102.63432
21400.00000	102.81140	-1041.85524	102.81140
21450.00000	103.00564	-1044.22655	103.00564
21500.00000	103.18109	-1047.14718	103.18109
21550.00000	103.22354	-1049.45888	103.22354
21600.00000	103.39130	-1052.39099	103.39130
21650.00000	103.42703	-1055.68245	103.42703
21700.00000	103.46847	-1058.13312	103.46847
21750.00000	103.51294	-1061.02920	103.51294
21800.00000	103.51221	-1064.03568	103.51221
21850.00000	103.43847	-1066.64218	103.43847
21900.00000	103.41913	-1069.35284	103.41913
21950.00000	103.34660	-1071.90462	103.34660
22000.00000	103.35787	-1074.24639	103.35787
22050.00000	103.26878	-1076.47611	103.26878
22100.00000	103.18053	-1078.96064	103.18053
22150.00000	103.06788	-1081.01155	103.06788
22200.00000	103.14275	-1083.22272	103.14275
22250.00000	103.02112	-1084.97862	103.02112
22300.00000	102.87769	-1087.13359	102.87769
22350.00000	102.92465	-1089.54140	102.92465
22400.00000	102.93513	-1091.80978	102.93513
22450.00000	102.82456	-1093.74534	102.82456
22500.00000	102.70981	-1094.77503	102.70981
22550.00000	102.67507	-1097.21279	102.67507
22600.00000	102.59202	-1099.84784	102.59202
22650.00000	102.59006	-1101.92770	102.59006
