---ACOUSTIC CALIBRATION---
Filename: C:\Data\AZH DATA\AZH81\RightPrimary.calib
Date: 8/27/2019 4:23:44 PM
Format: 4
Probe Tube Correction File: C:\Data\Probe Tube Calibrations\50_ProbeTube.calib
Experiment VIs: 850
EPL_CFTS.exe V12.0.1 (2012)
DAQmx V9.6

Attenuation (dB): 40.000000
Min Freq (Hz): 50.000000
Max Freq (Hz): 49950.000000
Freq Step (Hz): 50.000000
Sample Rate (Hz): 100000.000000
[Smoothing]
Method=None
MA.Iterations=0
MA.Length=0
Loess.Length=0
Loess.Type=Linear
Loess.Robust=FALSE


Freq(Hz)	Mag(dB)	Phase(deg)	Unsmoothed(dB)

50.00000	106.03064	441.53258	106.03064
100.00000	88.69564	561.84618	88.69564
150.00000	80.50463	493.05399	80.50463
200.00000	82.32726	475.31988	82.32726
250.00000	88.77552	438.67751	88.77552
300.00000	86.46019	392.40404	86.46019
350.00000	83.34099	402.06132	83.34099
400.00000	85.14272	379.81421	85.14272
450.00000	87.69066	349.68813	87.69066
500.00000	88.12859	374.91060	88.12859
550.00000	93.07244	365.24961	93.07244
600.00000	94.26821	357.69534	94.26821
650.00000	97.49138	351.73163	97.49138
700.00000	99.45875	335.10002	99.45875
750.00000	101.49762	317.25933	101.49762
800.00000	102.12163	292.02837	102.12163
850.00000	101.49546	277.84349	101.49546
900.00000	100.27361	259.21167	100.27361
950.00000	98.42592	258.52603	98.42592
1000.00000	97.05482	257.24805	97.05482
1050.00000	94.80644	270.33596	94.80644
1100.00000	96.17866	291.39689	96.17866
1150.00000	98.87734	299.90762	98.87734
1200.00000	101.85405	298.74565	101.85405
1250.00000	103.48414	290.57777	103.48414
1300.00000	105.41187	285.42404	105.41187
1350.00000	106.46375	275.85337	106.46375
1400.00000	107.46053	268.87689	107.46053
1450.00000	108.40967	260.83790	108.40967
1500.00000	109.40134	255.28986	109.40134
1550.00000	110.23627	246.76422	110.23627
1600.00000	111.65939	237.96211	111.65939
1650.00000	112.83266	220.45508	112.83266
1700.00000	111.67538	210.39114	111.67538
1750.00000	111.49423	204.22472	111.49423
1800.00000	111.23736	198.98636	111.23736
1850.00000	111.32727	197.41999	111.32727
1900.00000	112.37854	193.32144	112.37854
1950.00000	113.13597	180.89769	113.13597
2000.00000	112.31281	168.08079	112.31281
2050.00000	110.81656	170.89761	110.81656
2100.00000	112.44868	172.46233	112.44868
2150.00000	113.25974	161.68913	113.25974
2200.00000	113.20809	151.37856	113.20809
2250.00000	112.63236	144.05151	112.63236
2300.00000	112.73735	138.67427	112.73735
2350.00000	112.46749	131.87812	112.46749
2400.00000	112.22933	126.39949	112.22933
2450.00000	111.91859	119.80579	111.91859
2500.00000	111.55440	114.88032	111.55440
2550.00000	111.16560	109.08677	111.16560
2600.00000	110.62959	104.89807	110.62959
2650.00000	110.16372	101.03163	110.16372
2700.00000	109.65127	97.27302	109.65127
2750.00000	109.17097	94.11536	109.17097
2800.00000	108.57322	90.91892	108.57322
2850.00000	108.04221	88.69125	108.04221
2900.00000	107.46581	86.44512	107.46581
2950.00000	106.93924	85.37486	106.93924
3000.00000	106.25044	83.32046	106.25044
3050.00000	105.60525	82.60979	105.60525
3100.00000	105.07509	82.22865	105.07509
3150.00000	104.02859	80.96729	104.02859
3200.00000	102.64862	83.70787	102.64862
3250.00000	101.58139	90.50079	101.58139
3300.00000	100.78835	99.88220	100.78835
3350.00000	99.97862	113.98405	99.97862
3400.00000	100.96486	134.71688	100.96486
3450.00000	103.34137	148.16578	103.34137
3500.00000	106.04948	152.07351	106.04948
3550.00000	108.33390	150.47018	108.33390
3600.00000	110.29958	147.58754	110.29958
3650.00000	111.88087	142.49290	111.88087
3700.00000	113.20453	137.62298	113.20453
3750.00000	114.52696	132.62520	114.52696
3800.00000	115.74040	126.47519	115.74040
3850.00000	116.81873	120.23554	116.81873
3900.00000	117.85394	113.83741	117.85394
3950.00000	118.84661	106.97216	118.84661
4000.00000	119.72550	99.50682	119.72550
4050.00000	120.55293	92.32215	120.55293
4100.00000	121.43409	85.08855	121.43409
4150.00000	122.48545	76.78837	122.48545
4200.00000	123.28590	66.98580	123.28590
4250.00000	124.05224	55.88462	124.05224
4300.00000	124.58468	43.65664	124.58468
4350.00000	124.79035	30.73905	124.79035
4400.00000	124.70435	18.52036	124.70435
4450.00000	124.40606	 7.25482	124.40606
4500.00000	124.00538	-3.02396	124.00538
4550.00000	123.52601	-12.58498	123.52601
4600.00000	122.99101	-21.43839	122.99101
4650.00000	122.48120	-29.53186	122.48120
4700.00000	121.94614	-37.99628	121.94614
4750.00000	121.28094	-46.55752	121.28094
4800.00000	120.45064	-55.17707	120.45064
4850.00000	119.35907	-63.00957	119.35907
4900.00000	118.01489	-69.10303	118.01489
4950.00000	116.58616	-72.51488	116.58616
5000.00000	115.20910	-73.26615	115.20910
5050.00000	114.10107	-72.97184	114.10107
5100.00000	112.89019	-69.70637	112.89019
5150.00000	112.66499	-63.72580	112.66499
5200.00000	111.85775	-60.95487	111.85775
5250.00000	112.41154	-45.63468	112.41154
5300.00000	115.38147	-47.69252	115.38147
5350.00000	116.19905	-62.13277	116.19905
5400.00000	115.76315	-71.73721	115.76315
5450.00000	115.19949	-77.15837	115.19949
5500.00000	114.74402	-80.82013	114.74402
5550.00000	114.40141	-83.73253	114.40141
5600.00000	114.11214	-86.46241	114.11214
5650.00000	113.91128	-88.91086	113.91128
5700.00000	113.70918	-91.50686	113.70918
5750.00000	113.53394	-93.93459	113.53394
5800.00000	113.35270	-96.44882	113.35270
5850.00000	113.21107	-98.87602	113.21107
5900.00000	113.09866	-101.47669	113.09866
5950.00000	112.95669	-103.91192	112.95669
6000.00000	112.83790	-106.26727	112.83790
6050.00000	112.71438	-108.70651	112.71438
6100.00000	112.63825	-110.95848	112.63825
6150.00000	112.55675	-113.47757	112.55675
6200.00000	112.46263	-115.97523	112.46263
6250.00000	112.41776	-118.54198	112.41776
6300.00000	112.36072	-121.21135	112.36072
6350.00000	112.28850	-124.24712	112.28850
6400.00000	112.23536	-126.97280	112.23536
6450.00000	112.17923	-129.84514	112.17923
6500.00000	112.08899	-132.62578	112.08899
6550.00000	111.98074	-135.57833	111.98074
6600.00000	111.91303	-138.31950	111.91303
6650.00000	111.82477	-141.05621	111.82477
6700.00000	111.77300	-143.93497	111.77300
6750.00000	111.71528	-146.77351	111.71528
6800.00000	111.64900	-149.56431	111.64900
6850.00000	111.57898	-152.51678	111.57898
6900.00000	111.52383	-155.48295	111.52383
6950.00000	111.45981	-158.34049	111.45981
7000.00000	111.41654	-161.43327	111.41654
7050.00000	111.33482	-164.49319	111.33482
7100.00000	111.29233	-167.83285	111.29233
7150.00000	111.23285	-171.07945	111.23285
7200.00000	111.14706	-174.40294	111.14706
7250.00000	111.03921	-177.89105	111.03921
7300.00000	110.95779	-181.47932	110.95779
7350.00000	110.83125	-184.94731	110.83125
7400.00000	110.70607	-188.71425	110.70607
7450.00000	110.55662	-192.43512	110.55662
7500.00000	110.35091	-196.19476	110.35091
7550.00000	110.19113	-199.70561	110.19113
7600.00000	109.95298	-203.49235	109.95298
7650.00000	109.70999	-206.95768	109.70999
7700.00000	109.49081	-210.46776	109.49081
7750.00000	109.19840	-213.84265	109.19840
7800.00000	108.89291	-217.25559	108.89291
7850.00000	108.58984	-220.43935	108.58984
7900.00000	108.28772	-223.35011	108.28772
7950.00000	107.96926	-226.36612	107.96926
8000.00000	107.61800	-229.23712	107.61800
8050.00000	107.33126	-232.08053	107.33126
8100.00000	106.98933	-233.95646	106.98933
8150.00000	106.60224	-236.23602	106.60224
8200.00000	106.29680	-238.15582	106.29680
8250.00000	105.93423	-240.35641	105.93423
8300.00000	105.57215	-242.34050	105.57215
8350.00000	105.22223	-243.91523	105.22223
8400.00000	104.87008	-246.16276	104.87008
8450.00000	104.46365	-247.98912	104.46365
8500.00000	104.11025	-250.02372	104.11025
8550.00000	103.83238	-251.71820	103.83238
8600.00000	103.55946	-253.71806	103.55946
8650.00000	103.29658	-255.28033	103.29658
8700.00000	103.09994	-257.23141	103.09994
8750.00000	102.83148	-257.49755	102.83148
8800.00000	102.69726	-259.14368	102.69726
8850.00000	102.43582	-259.90257	102.43582
8900.00000	102.29947	-260.17282	102.29947
8950.00000	102.06672	-261.29936	102.06672
9000.00000	101.78374	-262.09371	101.78374
9050.00000	101.56656	-263.30549	101.56656
9100.00000	101.27865	-264.44720	101.27865
9150.00000	101.05669	-266.27697	101.05669
9200.00000	100.85945	-268.12273	100.85945
9250.00000	100.69049	-269.87387	100.69049
9300.00000	100.59904	-271.64358	100.59904
9350.00000	100.58843	-273.55868	100.58843
9400.00000	100.55377	-274.45929	100.55377
9450.00000	100.57582	-275.22153	100.57582
9500.00000	100.62697	-274.93548	100.62697
9550.00000	100.74479	-274.59280	100.74479
9600.00000	100.88588	-275.42810	100.88588
9650.00000	100.81583	-276.76256	100.81583
9700.00000	100.75931	-277.46566	100.75931
9750.00000	100.73209	-279.72385	100.73209
9800.00000	100.62201	-281.13956	100.62201
9850.00000	100.58934	-283.09271	100.58934
9900.00000	100.46418	-285.67714	100.46418
9950.00000	100.53453	-287.54849	100.53453
10000.00000	100.64808	-290.40763	100.64808
10050.00000	100.68409	-292.41589	100.68409
10100.00000	100.71982	-294.21948	100.71982
10150.00000	100.67473	-296.71301	100.67473
10200.00000	100.65429	-299.00117	100.65429
10250.00000	100.50109	-301.58078	100.50109
10300.00000	100.49123	-304.31822	100.49123
10350.00000	100.34164	-307.18084	100.34164
10400.00000	100.14521	-310.71256	100.14521
10450.00000	100.13023	-314.50954	100.13023
10500.00000	100.12023	-318.12903	100.12023
10550.00000	100.04241	-321.17775	100.04241
10600.00000	99.95149	-324.34042	99.95149
10650.00000	99.84239	-326.63779	99.84239
10700.00000	99.64389	-330.22740	99.64389
10750.00000	99.48478	-332.89374	99.48478
10800.00000	99.20202	-335.80671	99.20202
10850.00000	98.86735	-339.41487	98.86735
10900.00000	98.60054	-342.42110	98.60054
10950.00000	98.26788	-345.40802	98.26788
11000.00000	97.95901	-348.35192	97.95901
11050.00000	97.52275	-351.15510	97.52275
11100.00000	97.18466	-353.84254	97.18466
11150.00000	96.70783	-355.91623	96.70783
11200.00000	96.34155	-357.63768	96.34155
11250.00000	95.81281	-359.90602	95.81281
11300.00000	95.24823	-361.85357	95.24823
11350.00000	94.73275	-363.19870	94.73275
11400.00000	94.13268	-364.73535	94.13268
11450.00000	93.70605	-366.43700	93.70605
11500.00000	93.33570	-366.49166	93.33570
11550.00000	92.84131	-367.34677	92.84131
11600.00000	92.51734	-368.11732	92.51734
11650.00000	92.07012	-367.56132	92.07012
11700.00000	91.73375	-367.72547	91.73375
11750.00000	91.37601	-367.67236	91.37601
11800.00000	91.07236	-367.90292	91.07236
11850.00000	90.76079	-366.57026	90.76079
11900.00000	90.25283	-366.39029	90.25283
11950.00000	90.00729	-365.07349	90.00729
12000.00000	89.67009	-364.19597	89.67009
12050.00000	89.34854	-363.40615	89.34854
12100.00000	89.15726	-362.92666	89.15726
12150.00000	88.91310	-362.89151	88.91310
12200.00000	88.79343	-362.33846	88.79343
12250.00000	88.76935	-361.61619	88.76935
12300.00000	89.79872	-360.20269	89.79872
12350.00000	88.67381	-359.55454	88.67381
12400.00000	88.65354	-357.42725	88.65354
12450.00000	88.56294	-355.87899	88.56294
12500.00000	88.41410	-355.20531	88.41410
12550.00000	88.42644	-354.05586	88.42644
12600.00000	88.27946	-354.69341	88.27946
12650.00000	88.43192	-354.89838	88.43192
12700.00000	88.44493	-355.10375	88.44493
12750.00000	88.52252	-354.76279	88.52252
12800.00000	88.63650	-353.93212	88.63650
12850.00000	88.44559	-352.98042	88.44559
12900.00000	88.44318	-353.36949	88.44318
12950.00000	88.44767	-352.62646	88.44767
13000.00000	88.30422	-353.49089	88.30422
13050.00000	88.47687	-352.62348	88.47687
13100.00000	88.47803	-352.15475	88.47803
13150.00000	88.62601	-352.85277	88.62601
13200.00000	88.73377	-352.16584	88.73377
13250.00000	88.75983	-351.42525	88.75983
13300.00000	88.90880	-348.94079	88.90880
13350.00000	88.88269	-349.08273	88.88269
13400.00000	89.15701	-349.60826	89.15701
13450.00000	89.11252	-348.05202	89.11252
13500.00000	89.34470	-347.27083	89.34470
13550.00000	89.28039	-347.81939	89.28039
13600.00000	89.56793	-347.32537	89.56793
13650.00000	89.78182	-346.80327	89.78182
13700.00000	89.69671	-346.06871	89.69671
13750.00000	89.89596	-345.54302	89.89596
13800.00000	89.97456	-347.84866	89.97456
13850.00000	90.16495	-347.71925	90.16495
13900.00000	90.21648	-347.52203	90.21648
13950.00000	90.70857	-347.27717	90.70857
14000.00000	91.13445	-345.57594	91.13445
14050.00000	91.44941	-345.85575	91.44941
14100.00000	91.54645	-345.26441	91.54645
14150.00000	91.93470	-345.68326	91.93470
14200.00000	92.28685	-345.22112	92.28685
14250.00000	92.83330	-343.89331	92.83330
14300.00000	93.17711	-345.09033	93.17711
14350.00000	93.54165	-343.84553	93.54165
14400.00000	93.65130	-344.55169	93.65130
14450.00000	94.03051	-344.49476	94.03051
14500.00000	94.31671	-345.63017	94.31671
14550.00000	94.80738	-345.60314	94.80738
14600.00000	95.07182	-347.78607	95.07182
14650.00000	95.72949	-347.26391	95.72949
14700.00000	96.21369	-352.28261	96.21369
14750.00000	96.64345	-352.91635	96.64345
14800.00000	96.96480	-353.48690	96.96480
14850.00000	97.53112	-354.71000	97.53112
14900.00000	97.98072	-356.63308	97.98072
14950.00000	98.40126	-358.59955	98.40126
15000.00000	98.92085	-361.09852	98.92085
15050.00000	99.13568	-361.89626	99.13568
15100.00000	99.64630	-363.50723	99.64630
15150.00000	100.21781	-366.36311	100.21781
15200.00000	100.47750	-367.31390	100.47750
15250.00000	100.74960	-370.87271	100.74960
15300.00000	101.29188	-374.11658	101.29188
15350.00000	101.58431	-377.57468	101.58431
15400.00000	101.89251	-379.41732	101.89251
15450.00000	102.21185	-383.13020	102.21185
15500.00000	102.64162	-385.82822	102.64162
15550.00000	102.95519	-389.47337	102.95519
15600.00000	103.16597	-393.00733	103.16597
15650.00000	103.53808	-394.78681	103.53808
15700.00000	103.64182	-399.26762	103.64182
15750.00000	103.99862	-402.23960	103.99862
15800.00000	104.26036	-404.62322	104.26036
15850.00000	104.40549	-407.67324	104.40549
15900.00000	104.48834	-411.35228	104.48834
15950.00000	104.73115	-414.62107	104.73115
16000.00000	104.88784	-417.53859	104.88784
16050.00000	105.13819	-420.56492	105.13819
16100.00000	105.12296	-424.04045	105.12296
16150.00000	105.20841	-426.92840	105.20841
16200.00000	105.36846	-430.59547	105.36846
16250.00000	105.50890	-432.88317	105.50890
16300.00000	105.77918	-436.23946	105.77918
16350.00000	105.85045	-439.08675	105.85045
16400.00000	105.98300	-441.57726	105.98300
16450.00000	106.08477	-444.24983	106.08477
16500.00000	106.16327	-447.19863	106.16327
16550.00000	106.34767	-450.45614	106.34767
16600.00000	106.49601	-453.03698	106.49601
16650.00000	106.58050	-455.80255	106.58050
16700.00000	106.73586	-458.31870	106.73586
16750.00000	106.77605	-461.41662	106.77605
16800.00000	106.92948	-464.61113	106.92948
16850.00000	107.14570	-467.22162	107.14570
16900.00000	107.27302	-470.30958	107.27302
16950.00000	107.40362	-473.23932	107.40362
17000.00000	107.40972	-476.37380	107.40972
17050.00000	107.57957	-478.64423	107.57957
17100.00000	107.64019	-480.65003	107.64019
17150.00000	107.91159	-484.37561	107.91159
17200.00000	108.00113	-487.18107	108.00113
17250.00000	108.08181	-490.68094	108.08181
17300.00000	108.25369	-493.64582	108.25369
17350.00000	108.24064	-496.45633	108.24064
17400.00000	108.44137	-499.56057	108.44137
17450.00000	108.49571	-503.12704	108.49571
17500.00000	108.63090	-506.21836	108.63090
17550.00000	108.74615	-509.44193	108.74615
17600.00000	108.91867	-512.25849	108.91867
17650.00000	108.98736	-516.46793	108.98736
17700.00000	109.04700	-519.87484	109.04700
17750.00000	109.23902	-522.66189	109.23902
17800.00000	109.21625	-526.72258	109.21625
17850.00000	109.28605	-529.64839	109.28605
17900.00000	109.30232	-533.34588	109.30232
17950.00000	109.45303	-537.15153	109.45303
18000.00000	109.45670	-541.11691	109.45670
18050.00000	109.60510	-544.25492	109.60510
18100.00000	109.55108	-548.34164	109.55108
18150.00000	109.52379	-551.38853	109.52379
18200.00000	109.49690	-555.49348	109.49690
18250.00000	109.53144	-558.35936	109.53144
18300.00000	109.56445	-561.95037	109.56445
18350.00000	109.54181	-565.25725	109.54181
18400.00000	109.43624	-569.08461	109.43624
18450.00000	109.36413	-573.71160	109.36413
18500.00000	109.32968	-576.90110	109.32968
18550.00000	109.24749	-579.76518	109.24749
18600.00000	109.28940	-583.60943	109.28940
18650.00000	109.05910	-586.64683	109.05910
18700.00000	108.96854	-590.35148	108.96854
18750.00000	108.95349	-593.46817	108.95349
18800.00000	108.98791	-596.09580	108.98791
18850.00000	108.77274	-599.53437	108.77274
18900.00000	108.66851	-602.39921	108.66851
18950.00000	108.59788	-606.05815	108.59788
19000.00000	108.36923	-608.61710	108.36923
19050.00000	108.42489	-611.59361	108.42489
19100.00000	108.28796	-614.56913	108.28796
19150.00000	108.33674	-617.35225	108.33674
19200.00000	108.21487	-619.96789	108.21487
19250.00000	108.14691	-623.89544	108.14691
19300.00000	107.99398	-626.08371	107.99398
19350.00000	107.93330	-629.07647	107.93330
19400.00000	107.84099	-631.87848	107.84099
19450.00000	107.86772	-634.19873	107.86772
19500.00000	107.71672	-637.97620	107.71672
19550.00000	107.66688	-640.76360	107.66688
19600.00000	107.69961	-644.33365	107.69961
19650.00000	107.55959	-646.82214	107.55959
19700.00000	107.37614	-650.02017	107.37614
19750.00000	107.29677	-652.50661	107.29677
19800.00000	107.29726	-656.39284	107.29726
19850.00000	107.24066	-659.22591	107.24066
19900.00000	107.09779	-663.06083	107.09779
19950.00000	106.98343	-666.14101	106.98343
20000.00000	106.89045	-669.45239	106.89045
20050.00000	106.78815	-672.62240	106.78815
20100.00000	106.58144	-675.98606	106.58144
20150.00000	106.49682	-678.40274	106.49682
20200.00000	106.32185	-682.59149	106.32185
20250.00000	106.09960	-685.78884	106.09960
20300.00000	105.84173	-689.10966	105.84173
20350.00000	105.71003	-692.59877	105.71003
20400.00000	105.41308	-695.23799	105.41308
20450.00000	105.09915	-698.62608	105.09915
20500.00000	104.88228	-702.03585	104.88228
20550.00000	104.34929	-704.29594	104.34929
20600.00000	104.11887	-707.07014	104.11887
20650.00000	103.75917	-709.84159	103.75917
20700.00000	103.34178	-712.25784	103.34178
20750.00000	102.99980	-714.30923	102.99980
20800.00000	102.55216	-715.97509	102.55216
20850.00000	102.20338	-717.68539	102.20338
20900.00000	101.71494	-719.12859	101.71494
20950.00000	101.29167	-719.59482	101.29167
21000.00000	100.91961	-720.17309	100.91961
21050.00000	100.69266	-720.08037	100.69266
21100.00000	100.34200	-719.92609	100.34200
21150.00000	100.13505	-720.08991	100.13505
21200.00000	99.98318	-719.44307	99.98318
21250.00000	99.81495	-720.25459	99.81495
21300.00000	99.77757	-719.53012	99.77757
21350.00000	99.68203	-719.16973	99.68203
21400.00000	99.63982	-719.51168	99.63982
21450.00000	99.62354	-719.79637	99.62354
21500.00000	99.68164	-720.34561	99.68164
21550.00000	99.58344	-720.51971	99.58344
21600.00000	99.70732	-721.41399	99.70732
21650.00000	99.72950	-722.36025	99.72950
21700.00000	99.76274	-723.07000	99.76274
21750.00000	99.82509	-724.06554	99.82509
21800.00000	99.85724	-725.04579	99.85724
21850.00000	99.84948	-726.05870	99.84948
21900.00000	99.91431	-727.38849	99.91431
21950.00000	99.94021	-728.30699	99.94021
22000.00000	100.02843	-729.22076	100.02843
22050.00000	100.06712	-730.33584	100.06712
22100.00000	100.09832	-731.72728	100.09832
22150.00000	100.14512	-732.89871	100.14512
22200.00000	100.24921	-733.98480	100.24921
22250.00000	100.22992	-734.95797	100.22992
22300.00000	100.22520	-736.41200	100.22520
22350.00000	100.35027	-738.10457	100.35027
22400.00000	100.46203	-739.60198	100.46203
22450.00000	100.46620	-740.76307	100.46620
22500.00000	100.50459	-741.58140	100.50459
22550.00000	100.56737	-743.15811	100.56737
22600.00000	100.62489	-745.85998	100.62489
22650.00000	100.64150	-747.01509	100.64150
22700.00000	100.71318	-748.46814	100.71318
22750.00000	100.79185	-748.27800	100.79185
