---ACOUSTIC CALIBRATION---
Filename: C:\Data\AZH DATA\AZH81\RightSecondary.calib
Date: 8/27/2019 4:25:06 PM
Format: 4
Probe Tube Correction File: C:\Data\Probe Tube Calibrations\50_ProbeTube.calib
Experiment VIs: 850
EPL_CFTS.exe V12.0.1 (2012)
DAQmx V9.6

Attenuation (dB): 40.000000
Min Freq (Hz): 50.000000
Max Freq (Hz): 49950.000000
Freq Step (Hz): 50.000000
Sample Rate (Hz): 100000.000000
[Smoothing]
Method=None
MA.Iterations=0
MA.Length=0
Loess.Length=0
Loess.Type=Linear
Loess.Robust=FALSE


Freq(Hz)	Mag(dB)	Phase(deg)	Unsmoothed(dB)

50.00000	100.03347	537.07414	100.03347
100.00000	82.82726	523.17826	82.82726
150.00000	82.33539	484.23694	82.33539
200.00000	86.38345	432.48052	86.38345
250.00000	92.71821	407.44732	92.71821
300.00000	93.12726	343.71182	93.12726
350.00000	89.39793	339.19663	89.39793
400.00000	89.00445	314.83750	89.00445
450.00000	84.93531	300.56754	84.93531
500.00000	81.16621	318.69566	81.16621
550.00000	88.40438	333.48714	88.40438
600.00000	92.80804	324.42799	92.80804
650.00000	95.24932	329.90983	95.24932
700.00000	97.77376	321.43140	97.77376
750.00000	100.16899	315.82179	100.16899
800.00000	102.41326	306.17232	102.41326
850.00000	104.82065	295.83354	104.82065
900.00000	106.06506	278.88461	106.06506
950.00000	107.52597	263.13963	107.52597
1000.00000	107.58451	245.02139	107.58451
1050.00000	107.05032	235.45500	107.05032
1100.00000	107.33684	224.49009	107.33684
1150.00000	106.52676	214.44017	106.52676
1200.00000	106.20595	212.03334	106.20595
1250.00000	106.41681	202.07146	106.41681
1300.00000	105.65142	196.62579	105.65142
1350.00000	105.06278	191.71227	105.06278
1400.00000	104.54542	190.63518	104.54542
1450.00000	104.37545	189.87080	104.37545
1500.00000	104.52294	189.06889	104.52294
1550.00000	104.66868	187.37377	104.66868
1600.00000	105.33641	183.58774	105.33641
1650.00000	106.10928	176.09393	106.10928
1700.00000	104.92509	172.32850	104.92509
1750.00000	104.82960	170.73660	104.82960
1800.00000	104.79086	167.50954	104.79086
1850.00000	104.75352	169.55120	104.75352
1900.00000	105.58865	170.21213	105.58865
1950.00000	106.50790	162.10728	106.50790
2000.00000	106.34488	151.88561	106.34488
2050.00000	105.28196	147.63255	105.28196
2100.00000	105.15705	146.45812	105.15705
2150.00000	105.00430	143.27166	105.00430
2200.00000	104.47516	139.50738	104.47516
2250.00000	103.44001	138.41442	103.44001
2300.00000	103.45628	140.19222	103.45628
2350.00000	103.22916	142.16301	103.22916
2400.00000	103.60016	143.40161	103.60016
2450.00000	103.71602	140.23343	103.71602
2500.00000	103.27318	140.30479	103.27318
2550.00000	102.97157	142.22912	102.97157
2600.00000	103.19048	148.21474	103.19048
2650.00000	104.18893	152.70119	104.18893
2700.00000	105.76356	152.68856	105.76356
2750.00000	107.11647	145.52221	107.11647
2800.00000	107.69542	136.36406	107.69542
2850.00000	107.64166	128.26725	107.64166
2900.00000	107.36537	121.95878	107.36537
2950.00000	107.05912	118.20857	107.05912
3000.00000	106.81868	114.29034	106.81868
3050.00000	106.45761	111.45263	106.45761
3100.00000	106.39021	108.89329	106.39021
3150.00000	106.08108	103.68300	106.08108
3200.00000	105.57782	100.31547	105.57782
3250.00000	104.89459	97.63672	104.89459
3300.00000	104.19508	94.87620	104.19508
3350.00000	102.88927	94.01143	102.88927
3400.00000	101.77082	99.06508	101.77082
3450.00000	100.99573	106.94259	100.99573
3500.00000	100.99101	115.71518	100.99101
3550.00000	101.40069	121.30780	101.40069
3600.00000	101.91001	126.37260	101.91001
3650.00000	102.19483	128.80475	102.19483
3700.00000	101.88006	133.79002	101.88006
3750.00000	102.18879	144.08736	102.18879
3800.00000	103.51810	154.76651	103.51810
3850.00000	105.46023	161.13020	105.46023
3900.00000	107.49148	163.06604	107.49148
3950.00000	109.32792	160.99374	109.32792
4000.00000	110.83748	157.18686	110.83748
4050.00000	112.06210	152.64812	112.06210
4100.00000	113.07403	148.67839	113.07403
4150.00000	114.19222	145.11965	114.19222
4200.00000	115.01560	140.86463	115.01560
4250.00000	115.92013	137.21909	115.92013
4300.00000	116.77275	133.77874	116.77275
4350.00000	117.65697	130.46420	117.65697
4400.00000	118.62514	127.81104	118.62514
4450.00000	119.75671	124.82108	119.75671
4500.00000	121.03190	120.84411	121.03190
4550.00000	122.39191	115.49083	122.39191
4600.00000	123.74991	108.72689	123.74991
4650.00000	125.14136	100.61223	125.14136
4700.00000	126.45648	90.43872	126.45648
4750.00000	127.61616	78.47909	127.61616
4800.00000	128.52312	64.54598	128.52312
4850.00000	129.02299	49.44587	129.02299
4900.00000	129.06136	33.89846	129.06136
4950.00000	128.60384	19.07572	128.60384
5000.00000	127.66877	 6.31999	127.66877
5050.00000	126.57119	-2.92211	126.57119
5100.00000	125.38084	-12.59908	125.38084
5150.00000	122.91033	-16.72523	122.91033
5200.00000	121.18026	-0.00995	121.18026
5250.00000	124.06470	11.29131	124.06470
5300.00000	126.28176	-0.42208	126.28176
5350.00000	126.88115	-14.30327	126.88115
5400.00000	126.79627	-26.04955	126.79627
5450.00000	126.46006	-35.62463	126.46006
5500.00000	126.02462	-43.78734	126.02462
5550.00000	125.57573	-50.82182	125.57573
5600.00000	125.12383	-57.14833	125.12383
5650.00000	124.69553	-62.87186	124.69553
5700.00000	124.24901	-68.39396	124.24901
5750.00000	123.83751	-73.31616	123.83751
5800.00000	123.41784	-78.10247	123.41784
5850.00000	123.02095	-82.69047	123.02095
5900.00000	122.65234	-86.95810	122.65234
5950.00000	122.28928	-91.11396	122.28928
6000.00000	121.94416	-94.98601	121.94416
6050.00000	121.59326	-98.96577	121.59326
6100.00000	121.25060	-102.76987	121.25060
6150.00000	120.92501	-106.51266	120.92501
6200.00000	120.57284	-110.10507	120.57284
6250.00000	120.26154	-113.58562	120.26154
6300.00000	119.96435	-117.09362	119.96435
6350.00000	119.64473	-120.44286	119.64473
6400.00000	119.33814	-123.70271	119.33814
6450.00000	119.04824	-126.94742	119.04824
6500.00000	118.73914	-130.06582	118.73914
6550.00000	118.42274	-133.13924	118.42274
6600.00000	118.12357	-136.02261	118.12357
6650.00000	117.82771	-138.81395	117.82771
6700.00000	117.53842	-141.73529	117.53842
6750.00000	117.24721	-144.36654	117.24721
6800.00000	116.97244	-146.91419	116.97244
6850.00000	116.68888	-149.39105	116.68888
6900.00000	116.44218	-151.71298	116.44218
6950.00000	116.19146	-153.89839	116.19146
7000.00000	115.99449	-156.03726	115.99449
7050.00000	115.78564	-158.29181	115.78564
7100.00000	115.62248	-160.64955	115.62248
7150.00000	115.45645	-162.73163	115.45645
7200.00000	115.30997	-164.91906	115.30997
7250.00000	115.14343	-167.26622	115.14343
7300.00000	115.03197	-169.32322	115.03197
7350.00000	114.91314	-171.36856	114.91314
7400.00000	114.83332	-173.59178	114.83332
7450.00000	114.76291	-175.86804	114.76291
7500.00000	114.71362	-178.39515	114.71362
7550.00000	114.68803	-180.80151	114.68803
7600.00000	114.63342	-183.47136	114.63342
7650.00000	114.61245	-186.36427	114.61245
7700.00000	114.62661	-189.47437	114.62661
7750.00000	114.55833	-192.95784	114.55833
7800.00000	114.48998	-196.49043	114.48998
7850.00000	114.40929	-200.10968	114.40929
7900.00000	114.29362	-203.76663	114.29362
7950.00000	114.13348	-207.70311	114.13348
8000.00000	113.93448	-211.66302	113.93448
8050.00000	113.70096	-215.80295	113.70096
8100.00000	113.45678	-219.05343	113.45678
8150.00000	113.12543	-222.64126	113.12543
8200.00000	112.82613	-225.97009	112.82613
8250.00000	112.46651	-229.48481	112.46651
8300.00000	112.13651	-232.61871	112.13651
8350.00000	111.76565	-235.32003	111.76565
8400.00000	111.40470	-238.33019	111.40470
8450.00000	110.96810	-240.90733	110.96810
8500.00000	110.54826	-243.36611	110.54826
8550.00000	110.18400	-245.28124	110.18400
8600.00000	109.78439	-247.44644	109.78439
8650.00000	109.37510	-249.25043	109.37510
8700.00000	109.02607	-251.67829	109.02607
8750.00000	108.61458	-252.47013	108.61458
8800.00000	108.29236	-254.39493	108.29236
8850.00000	107.94029	-256.22057	107.94029
8900.00000	107.66550	-257.61513	107.66550
8950.00000	107.41479	-259.38887	107.41479
9000.00000	107.09216	-261.02939	107.09216
9050.00000	106.92013	-262.57862	106.92013
9100.00000	106.74254	-263.57529	106.74254
9150.00000	106.59583	-264.79390	106.59583
9200.00000	106.45356	-265.83923	106.45356
9250.00000	106.23581	-266.81548	106.23581
9300.00000	106.07009	-267.76013	106.07009
9350.00000	105.93389	-268.84819	105.93389
9400.00000	105.65662	-269.69336	105.65662
9450.00000	105.51722	-271.01850	105.51722
9500.00000	105.39649	-272.44323	105.39649
9550.00000	105.25851	-274.03675	105.25851
9600.00000	105.26438	-276.00232	105.26438
9650.00000	105.24554	-278.07675	105.24554
9700.00000	105.29666	-279.16579	105.29666
9750.00000	105.40958	-281.37446	105.40958
9800.00000	105.39835	-282.12339	105.39835
9850.00000	105.40516	-282.58007	105.40516
9900.00000	105.20094	-283.67012	105.20094
9950.00000	105.06442	-284.27464	105.06442
10000.00000	104.86769	-286.03114	104.86769
10050.00000	104.60398	-287.93846	104.60398
10100.00000	104.34724	-290.31650	104.34724
10150.00000	104.07768	-293.78016	104.07768
10200.00000	103.98559	-297.01810	103.98559
10250.00000	103.91390	-300.47034	103.91390
10300.00000	104.03253	-303.25464	104.03253
10350.00000	104.04126	-305.06232	104.04126
10400.00000	103.99066	-306.86002	103.99066
10450.00000	103.99940	-308.28601	103.99940
10500.00000	103.90440	-309.51188	103.90440
10550.00000	103.69832	-311.16368	103.69832
10600.00000	103.40200	-312.89843	103.40200
10650.00000	103.09748	-315.15097	103.09748
10700.00000	102.88498	-319.06991	102.88498
10750.00000	102.78872	-322.65435	102.78872
10800.00000	102.70532	-325.68127	102.70532
10850.00000	102.68271	-329.30337	102.68271
10900.00000	102.67178	-331.23057	102.67178
10950.00000	102.56958	-332.60694	102.56958
11000.00000	102.37435	-334.02573	102.37435
11050.00000	101.90360	-335.59970	101.90360
11100.00000	101.49131	-338.01997	101.49131
11150.00000	100.97281	-340.51625	100.97281
11200.00000	100.62214	-343.71616	100.62214
11250.00000	100.23168	-347.21621	100.23168
11300.00000	99.93747	-350.19523	99.93747
11350.00000	99.72109	-352.03844	99.72109
11400.00000	99.35925	-353.25063	99.35925
11450.00000	99.08201	-354.34746	99.08201
11500.00000	98.76241	-353.88492	98.76241
11550.00000	98.15914	-354.38472	98.15914
11600.00000	97.74358	-356.14718	97.74358
11650.00000	97.25042	-356.84614	97.25042
11700.00000	96.92597	-358.82122	96.92597
11750.00000	96.77734	-360.61167	96.77734
11800.00000	96.62014	-362.31584	96.62014
11850.00000	96.56380	-361.60622	96.56380
11900.00000	96.16380	-361.45085	96.16380
11950.00000	95.91059	-360.29233	95.91059
12000.00000	95.40762	-359.63681	95.40762
12050.00000	94.85961	-359.20742	94.85961
12100.00000	94.46387	-361.44707	94.46387
12150.00000	94.09738	-363.11758	94.09738
12200.00000	93.99982	-364.97253	93.99982
12250.00000	93.86617	-365.50201	93.86617
12300.00000	94.98764	-365.48457	94.98764
12350.00000	93.70181	-364.28036	93.70181
12400.00000	93.41737	-362.04557	93.41737
12450.00000	93.10987	-360.50604	93.10987
12500.00000	92.58805	-359.97151	92.58805
12550.00000	92.15935	-360.19071	92.15935
12600.00000	91.80250	-361.49574	91.80250
12650.00000	91.89234	-361.57482	91.89234
12700.00000	91.80065	-360.94735	91.80065
12750.00000	91.88324	-359.43712	91.88324
12800.00000	91.70639	-356.70345	91.70639
12850.00000	91.30705	-354.02227	91.30705
12900.00000	91.08801	-353.03281	91.08801
12950.00000	91.00826	-353.05448	91.00826
13000.00000	90.90462	-353.93164	90.90462
13050.00000	91.07831	-352.96765	91.07831
13100.00000	91.27707	-353.16390	91.27707
13150.00000	91.59362	-352.48123	91.59362
13200.00000	91.69261	-348.95855	91.69261
13250.00000	91.67395	-346.96883	91.67395
13300.00000	91.41866	-344.05199	91.41866
13350.00000	91.34075	-344.47243	91.34075
13400.00000	91.34777	-345.22077	91.34777
13450.00000	91.34395	-345.73380	91.34395
13500.00000	91.71276	-345.12793	91.71276
13550.00000	91.84287	-345.31992	91.84287
13600.00000	92.19299	-343.20538	92.19299
13650.00000	92.42869	-341.40997	92.42869
13700.00000	92.35207	-340.26032	92.35207
13750.00000	92.30323	-338.97427	92.30323
13800.00000	92.27149	-340.61810	92.27149
13850.00000	92.41303	-341.56202	92.41303
13900.00000	92.54081	-341.35394	92.54081
13950.00000	92.94114	-341.50099	92.94114
14000.00000	93.45284	-339.62445	93.45284
14050.00000	93.73243	-339.78956	93.73243
14100.00000	93.74181	-338.41823	93.74181
14150.00000	94.05092	-338.41496	94.05092
14200.00000	94.35761	-338.38957	94.35761
14250.00000	94.96271	-336.79413	94.96271
14300.00000	95.33626	-336.97931	95.33626
14350.00000	95.60567	-334.70057	95.60567
14400.00000	95.50330	-334.68663	95.50330
14450.00000	95.71818	-333.49264	95.71818
14500.00000	95.98979	-335.31724	95.98979
14550.00000	96.52580	-335.88641	96.52580
14600.00000	96.91957	-337.73876	96.91957
14650.00000	97.70752	-336.00268	97.70752
14700.00000	98.17782	-339.75872	98.17782
14750.00000	98.54585	-339.34641	98.54585
14800.00000	98.82133	-339.57003	98.82133
14850.00000	99.41553	-340.50702	99.41553
14900.00000	99.92678	-342.05218	99.92678
14950.00000	100.36595	-343.81957	100.36595
15000.00000	100.83220	-345.98393	100.83220
15050.00000	101.13888	-347.06792	101.13888
15100.00000	101.68629	-348.54158	101.68629
15150.00000	102.31386	-351.19099	102.31386
15200.00000	102.64610	-351.55213	102.64610
15250.00000	102.86887	-354.18196	102.86887
15300.00000	103.39879	-356.80248	103.39879
15350.00000	103.75168	-360.47115	103.75168
15400.00000	104.10322	-362.09601	104.10322
15450.00000	104.47572	-365.01592	104.47572
15500.00000	104.90743	-367.86958	104.90743
15550.00000	105.24807	-371.39679	105.24807
15600.00000	105.51657	-375.54008	105.51657
15650.00000	106.02311	-377.24736	106.02311
15700.00000	106.19411	-381.44483	106.19411
15750.00000	106.52486	-383.80028	106.52486
15800.00000	106.70063	-386.01067	106.70063
15850.00000	106.81829	-389.24992	106.81829
15900.00000	106.91678	-393.19600	106.91678
15950.00000	107.18161	-396.35336	107.18161
16000.00000	107.34243	-398.85693	107.34243
16050.00000	107.51732	-401.43101	107.51732
16100.00000	107.51278	-404.85851	107.51278
16150.00000	107.65592	-407.69673	107.65592
16200.00000	107.84302	-410.91033	107.84302
16250.00000	108.02269	-412.82744	108.02269
16300.00000	108.27009	-415.11949	108.27009
16350.00000	108.35623	-417.78038	108.35623
16400.00000	108.50463	-420.21413	108.50463
16450.00000	108.67344	-422.63311	108.67344
16500.00000	108.76217	-425.26143	108.76217
16550.00000	108.95507	-428.51551	108.95507
16600.00000	109.13528	-431.02916	109.13528
16650.00000	109.26424	-433.56700	109.26424
16700.00000	109.48310	-435.54641	109.48310
16750.00000	109.50391	-438.19504	109.50391
16800.00000	109.63520	-441.16190	109.63520
16850.00000	109.86681	-443.82100	109.86681
16900.00000	110.06203	-446.54137	110.06203
16950.00000	110.23237	-448.96238	110.23237
17000.00000	110.26858	-451.55339	110.26858
17050.00000	110.43076	-453.63454	110.43076
17100.00000	110.52406	-455.51959	110.52406
17150.00000	110.84770	-458.90471	110.84770
17200.00000	111.01303	-461.25922	111.01303
17250.00000	111.10944	-464.34031	111.10944
17300.00000	111.33431	-467.10594	111.33431
17350.00000	111.37292	-469.66933	111.37292
17400.00000	111.63630	-472.61341	111.63630
17450.00000	111.71752	-475.79235	111.71752
17500.00000	111.90827	-478.71053	111.90827
17550.00000	112.05706	-481.82228	112.05706
17600.00000	112.29609	-484.38341	112.29609
17650.00000	112.40805	-488.22408	112.40805
17700.00000	112.49263	-491.44942	112.49263
17750.00000	112.73922	-494.08144	112.73922
17800.00000	112.74815	-498.02052	112.74815
17850.00000	112.87268	-500.73206	112.87268
17900.00000	112.92610	-504.08867	112.92610
17950.00000	113.08316	-507.72012	113.08316
18000.00000	113.14429	-511.59659	113.14429
18050.00000	113.35942	-514.33684	113.35942
18100.00000	113.34138	-518.08498	113.34138
18150.00000	113.37538	-520.71158	113.37538
18200.00000	113.37453	-524.67645	113.37453
18250.00000	113.49392	-527.24634	113.49392
18300.00000	113.59158	-530.44848	113.59158
18350.00000	113.62011	-533.55430	113.62011
18400.00000	113.59876	-537.12671	113.59876
18450.00000	113.61387	-541.58413	113.61387
18500.00000	113.66698	-544.63742	113.66698
18550.00000	113.68327	-547.38694	113.68327
18600.00000	113.79498	-551.14141	113.79498
18650.00000	113.69169	-554.18233	113.69169
18700.00000	113.69509	-557.97161	113.69509
18750.00000	113.75464	-561.24411	113.75464
18800.00000	113.86653	-564.06402	113.86653
18850.00000	113.75460	-567.74283	113.75460
18900.00000	113.72948	-570.96588	113.72948
18950.00000	113.73600	-574.93003	113.73600
19000.00000	113.56802	-578.00222	113.56802
19050.00000	113.67382	-581.58073	113.67382
19100.00000	113.58069	-584.79330	113.58069
19150.00000	113.66101	-587.99685	113.66101
19200.00000	113.56969	-591.09997	113.56969
19250.00000	113.49120	-595.61235	113.49120
19300.00000	113.35261	-598.31899	113.35261
19350.00000	113.29999	-601.75015	113.29999
19400.00000	113.16520	-604.90822	113.16520
19450.00000	113.16228	-607.69681	113.16228
19500.00000	112.97458	-611.76157	112.97458
19550.00000	112.90104	-614.94431	112.90104
19600.00000	112.85327	-618.66313	112.85327
19650.00000	112.67994	-621.39351	112.67994
19700.00000	112.43916	-624.67201	112.43916
19750.00000	112.29570	-627.20457	112.29570
19800.00000	112.24793	-631.18735	112.24793
19850.00000	112.12587	-633.88036	112.12587
19900.00000	111.91998	-637.63670	111.91998
19950.00000	111.74105	-640.45496	111.74105
20000.00000	111.59108	-643.47630	111.59108
20050.00000	111.42625	-646.34740	111.42625
20100.00000	111.16953	-649.33206	111.16953
20150.00000	111.04727	-651.24632	111.04727
20200.00000	110.81698	-654.74833	110.81698
20250.00000	110.56847	-657.29290	110.56847
20300.00000	110.28921	-659.96297	110.28921
20350.00000	110.16276	-662.68063	110.16276
20400.00000	109.87029	-664.27642	109.87029
20450.00000	109.56552	-666.69426	109.56552
20500.00000	109.39974	-669.24720	109.39974
20550.00000	108.95012	-670.55887	108.95012
20600.00000	108.79656	-672.22451	108.79656
20650.00000	108.56869	-673.94449	108.56869
20700.00000	108.28385	-675.41337	108.28385
20750.00000	108.11836	-676.68094	108.11836
20800.00000	107.86560	-677.57920	107.86560
20850.00000	107.73469	-678.69263	107.73469
20900.00000	107.49897	-679.53055	107.49897
20950.00000	107.33134	-679.88951	107.33134
21000.00000	107.21526	-680.41812	107.21526
21050.00000	107.26338	-680.67549	107.26338
21100.00000	107.17520	-680.86824	107.17520
21150.00000	107.22991	-681.61298	107.22991
21200.00000	107.29295	-681.91639	107.29295
21250.00000	107.33876	-683.85891	107.33876
21300.00000	107.46602	-684.23079	107.46602
21350.00000	107.53211	-685.12949	107.53211
21400.00000	107.60663	-686.82493	107.60663
21450.00000	107.72537	-688.36585	107.72537
21500.00000	107.82960	-690.32538	107.82960
21550.00000	107.81310	-691.66591	107.81310
21600.00000	107.96910	-693.58929	107.96910
21650.00000	107.99817	-695.65238	107.99817
21700.00000	108.04439	-697.24243	108.04439
21750.00000	108.10995	-699.14281	108.10995
21800.00000	108.16346	-701.04772	108.16346
21850.00000	108.11841	-702.88162	108.11841
21900.00000	108.19392	-704.83556	108.19392
21950.00000	108.22109	-706.58806	108.22109
22000.00000	108.30024	-708.39678	108.30024
22050.00000	108.31204	-709.79527	108.31204
22100.00000	108.31446	-711.95052	108.31446
22150.00000	108.32336	-713.66694	108.32336
22200.00000	108.42672	-715.62106	108.42672
22250.00000	108.39569	-716.88190	108.39569
22300.00000	108.30231	-718.87732	108.30231
22350.00000	108.47390	-720.80073	108.47390
22400.00000	108.49905	-722.75474	108.49905
22450.00000	108.49531	-724.28851	108.49531
22500.00000	108.43747	-725.00201	108.43747
22550.00000	108.44054	-727.08028	108.44054
22600.00000	108.48288	-729.55729	108.48288
22650.00000	108.53717	-730.95569	108.53717
