---ACOUSTIC CALIBRATION---
Filename: C:\Data\AZH DATA\AZH81\RightPrimary.calib
Date: 8/27/2019 4:22:47 PM
Format: 4
Probe Tube Correction File: C:\Data\Probe Tube Calibrations\50_ProbeTube.calib
Experiment VIs: 850
EPL_CFTS.exe V12.0.1 (2012)
DAQmx V9.6

Attenuation (dB): 40.000000
Min Freq (Hz): 50.000000
Max Freq (Hz): 49950.000000
Freq Step (Hz): 50.000000
Sample Rate (Hz): 100000.000000
[Smoothing]
Method=None
MA.Iterations=0
MA.Length=0
Loess.Length=0
Loess.Type=Linear
Loess.Robust=FALSE


Freq(Hz)	Mag(dB)	Phase(deg)	Unsmoothed(dB)

50.00000	100.17793	411.72548	100.17793
100.00000	81.58005	491.39162	81.58005
150.00000	75.50425	433.62742	75.50425
200.00000	84.46462	448.06921	84.46462
250.00000	86.76822	459.52651	86.76822
300.00000	86.21493	403.43179	86.21493
350.00000	76.07083	434.29836	76.07083
400.00000	84.91584	379.54938	84.91584
450.00000	87.35582	371.53573	87.35582
500.00000	89.18914	388.58842	89.18914
550.00000	91.90382	369.47804	91.90382
600.00000	95.85286	371.94865	95.85286
650.00000	96.85828	351.76125	96.85828
700.00000	99.17872	337.77156	99.17872
750.00000	100.23709	320.12936	100.23709
800.00000	101.63102	295.96170	101.63102
850.00000	100.53256	281.07678	100.53256
900.00000	99.33407	265.49893	99.33407
950.00000	97.27089	260.34649	97.27089
1000.00000	95.61955	259.01117	95.61955
1050.00000	93.42566	271.76790	93.42566
1100.00000	95.34214	296.60182	95.34214
1150.00000	97.89505	299.44043	97.89505
1200.00000	100.82558	298.35839	100.82558
1250.00000	102.56026	292.26268	102.56026
1300.00000	104.23659	285.66642	104.23659
1350.00000	105.54159	276.64396	105.54159
1400.00000	106.38400	268.01890	106.38400
1450.00000	107.14650	262.66667	107.14650
1500.00000	108.27705	256.25785	108.27705
1550.00000	109.17306	248.21098	109.17306
1600.00000	110.63789	237.52000	110.63789
1650.00000	111.66353	221.55822	111.66353
1700.00000	110.52777	211.37405	110.52777
1750.00000	110.27436	205.07973	110.27436
1800.00000	110.06415	199.73145	110.06415
1850.00000	110.06527	199.16376	110.06527
1900.00000	111.17835	195.22431	111.17835
1950.00000	111.84510	182.41869	111.84510
2000.00000	111.04101	170.30846	111.04101
2050.00000	109.57553	173.53299	109.57553
2100.00000	111.37382	174.61493	111.37382
2150.00000	112.10259	163.74529	112.10259
2200.00000	112.04243	153.28680	112.04243
2250.00000	111.45923	146.43273	111.45923
2300.00000	111.58260	140.83092	111.58260
2350.00000	111.33751	134.39366	111.33751
2400.00000	111.13268	128.53777	111.13268
2450.00000	110.80979	122.39952	110.80979
2500.00000	110.48535	116.92221	110.48535
2550.00000	110.02369	111.78703	110.02369
2600.00000	109.54306	107.18333	109.54306
2650.00000	109.04134	103.66669	109.04134
2700.00000	108.54054	99.52357	108.54054
2750.00000	107.91850	96.14081	107.91850
2800.00000	107.40915	93.47951	107.40915
2850.00000	106.78094	91.14848	106.78094
2900.00000	106.27150	88.89880	106.27150
2950.00000	105.55628	87.54567	105.55628
3000.00000	105.04928	85.86609	105.04928
3050.00000	104.25238	84.89056	104.25238
3100.00000	103.56808	85.15557	103.56808
3150.00000	102.39673	84.14245	102.39673
3200.00000	101.06579	90.03359	101.06579
3250.00000	99.88259	98.54091	99.88259
3300.00000	99.18622	109.88076	99.18622
3350.00000	98.99463	127.04568	98.99463
3400.00000	100.58652	146.22509	100.58652
3450.00000	103.28510	156.07548	103.28510
3500.00000	105.98960	157.90146	105.98960
3550.00000	108.17510	155.11196	108.17510
3600.00000	110.01810	151.29316	110.01810
3650.00000	111.57212	145.63020	111.57212
3700.00000	112.84813	140.53034	112.84813
3750.00000	114.14586	135.06513	114.14586
3800.00000	115.32539	128.79060	115.32539
3850.00000	116.35749	122.09507	116.35749
3900.00000	117.31568	115.63993	117.31568
3950.00000	118.27712	108.68433	118.27712
4000.00000	119.12875	101.29003	119.12875
4050.00000	119.94709	93.97914	119.94709
4100.00000	120.80363	86.54997	120.80363
4150.00000	121.83164	78.09852	121.83164
4200.00000	122.59087	68.02908	122.59087
4250.00000	123.28146	56.77296	123.28146
4300.00000	123.74206	44.61797	123.74206
4350.00000	123.88140	31.99176	123.88140
4400.00000	123.72848	20.28359	123.72848
4450.00000	123.40280	 9.49391	123.40280
4500.00000	122.99993	-0.25942	122.99993
4550.00000	122.55209	-9.42008	122.55209
4600.00000	122.04584	-17.88713	122.04584
4650.00000	121.59386	-25.84368	121.59386
4700.00000	121.09588	-34.08987	121.09588
4750.00000	120.49345	-42.57321	120.49345
4800.00000	119.69863	-51.12453	119.69863
4850.00000	118.64727	-59.17115	118.64727
4900.00000	117.32730	-65.31922	117.32730
4950.00000	115.89417	-68.98739	115.89417
5000.00000	114.54848	-69.83823	114.54848
5050.00000	113.47990	-69.36629	113.47990
5100.00000	112.23499	-66.00224	112.23499
5150.00000	112.05798	-60.06511	112.05798
5200.00000	111.33526	-56.75413	111.33526
5250.00000	112.25821	-42.71920	112.25821
5300.00000	114.92382	-47.91174	114.92382
5350.00000	115.38867	-61.63926	115.38867
5400.00000	114.84231	-70.10879	114.84231
5450.00000	114.29401	-74.72619	114.29401
5500.00000	113.86958	-78.12782	113.86958
5550.00000	113.52329	-80.97981	113.52329
5600.00000	113.24915	-83.23392	113.24915
5650.00000	113.06535	-85.65738	113.06535
5700.00000	112.84787	-88.05231	112.84787
5750.00000	112.70405	-90.43259	112.70405
5800.00000	112.52628	-92.87320	112.52628
5850.00000	112.40834	-95.52500	112.40834
5900.00000	112.27980	-97.69348	112.27980
5950.00000	112.14787	-100.09071	112.14787
6000.00000	112.05521	-102.24066	112.05521
6050.00000	111.91950	-104.57272	111.91950
6100.00000	111.85249	-107.02686	111.85249
6150.00000	111.79680	-109.20169	111.79680
6200.00000	111.71877	-111.65198	111.71877
6250.00000	111.67529	-114.35817	111.67529
6300.00000	111.62416	-117.14007	111.62416
6350.00000	111.53591	-119.73933	111.53591
6400.00000	111.47422	-122.46431	111.47422
6450.00000	111.40743	-125.42904	111.40743
6500.00000	111.29454	-128.06554	111.29454
6550.00000	111.20418	-130.77343	111.20418
6600.00000	111.10619	-133.45079	111.10619
6650.00000	111.03480	-135.89379	111.03480
6700.00000	110.97034	-138.63719	110.97034
6750.00000	110.88337	-141.22729	110.88337
6800.00000	110.86264	-143.88943	110.86264
6850.00000	110.78678	-146.30796	110.78678
6900.00000	110.71858	-149.00135	110.71858
6950.00000	110.69032	-151.57515	110.69032
7000.00000	110.70491	-154.34063	110.70491
7050.00000	110.60377	-157.11203	110.60377
7100.00000	110.59880	-160.06403	110.59880
7150.00000	110.56594	-162.87381	110.56594
7200.00000	110.50804	-165.85230	110.50804
7250.00000	110.41622	-169.17723	110.41622
7300.00000	110.44038	-172.34594	110.44038
7350.00000	110.34701	-175.44225	110.34701
7400.00000	110.29470	-178.67098	110.29470
7450.00000	110.18802	-182.14689	110.18802
7500.00000	110.14716	-185.46336	110.14716
7550.00000	110.02501	-189.00844	110.02501
7600.00000	109.87547	-192.33558	109.87547
7650.00000	109.75915	-195.73267	109.75915
7700.00000	109.64637	-199.01525	109.64637
7750.00000	109.45779	-202.38919	109.45779
7800.00000	109.31205	-205.79903	109.31205
7850.00000	109.07048	-208.76507	109.07048
7900.00000	108.94922	-211.78470	108.94922
7950.00000	108.74370	-215.15985	108.74370
8000.00000	108.56979	-218.49758	108.56979
8050.00000	108.37242	-221.87413	108.37242
8100.00000	108.17744	-224.32488	108.17744
8150.00000	107.95008	-227.15386	107.95008
8200.00000	107.75307	-229.50279	107.75307
8250.00000	107.43907	-232.90367	107.43907
8300.00000	107.22573	-236.01136	107.22573
8350.00000	106.95132	-238.28854	106.95132
8400.00000	106.68770	-241.37560	106.68770
8450.00000	106.36786	-244.18442	106.36786
8500.00000	106.08078	-247.21779	106.08078
8550.00000	105.85677	-249.81910	105.85677
8600.00000	105.55712	-252.75027	105.55712
8650.00000	105.25453	-255.21834	105.25453
8700.00000	105.00996	-258.21338	105.00996
8750.00000	104.70005	-259.67551	104.70005
8800.00000	104.48229	-262.23705	104.48229
8850.00000	104.17503	-264.26677	104.17503
8900.00000	103.92513	-265.90112	103.92513
8950.00000	103.63816	-267.97759	103.63816
9000.00000	103.25848	-269.66448	103.25848
9050.00000	102.98136	-272.10235	102.98136
9100.00000	102.65660	-274.05571	102.65660
9150.00000	102.37211	-276.21285	102.37211
9200.00000	102.11104	-278.58397	102.11104
9250.00000	101.80002	-280.56849	101.80002
9300.00000	101.65601	-282.84225	101.65601
9350.00000	101.53759	-284.49667	101.53759
9400.00000	101.32356	-285.57226	101.32356
9450.00000	101.14968	-286.55578	101.14968
9500.00000	101.03964	-286.61869	101.03964
9550.00000	101.00954	-286.43579	101.00954
9600.00000	101.00635	-287.46913	101.00635
9650.00000	100.83732	-289.09298	100.83732
9700.00000	100.63695	-289.92187	100.63695
9750.00000	100.50703	-292.25320	100.50703
9800.00000	100.33216	-293.60160	100.33216
9850.00000	100.25588	-294.68518	100.25588
9900.00000	100.03259	-296.94556	100.03259
9950.00000	99.99243	-298.35326	99.99243
10000.00000	100.02515	-300.58250	100.02515
10050.00000	99.96988	-301.94439	99.96988
10100.00000	99.91457	-303.48352	99.91457
10150.00000	99.79751	-305.44402	99.79751
10200.00000	99.68469	-307.10131	99.68469
10250.00000	99.50401	-309.49459	99.50401
10300.00000	99.47405	-311.73642	99.47405
10350.00000	99.31584	-314.16990	99.31584
10400.00000	99.14672	-317.05487	99.14672
10450.00000	99.13922	-320.16289	99.13922
10500.00000	99.13206	-323.06266	99.13206
10550.00000	99.06994	-325.85326	99.06994
10600.00000	98.99965	-328.24586	98.99965
10650.00000	98.91087	-330.36543	98.91087
10700.00000	98.77702	-333.53581	98.77702
10750.00000	98.63058	-336.16992	98.63058
10800.00000	98.40207	-338.29840	98.40207
10850.00000	98.15774	-342.07133	98.15774
10900.00000	97.92899	-344.93153	97.92899
10950.00000	97.69618	-347.53621	97.69618
11000.00000	97.43950	-350.37678	97.43950
11050.00000	97.03571	-353.12773	97.03571
11100.00000	96.73973	-356.19381	96.73973
11150.00000	96.31580	-358.22569	96.31580
11200.00000	95.99847	-360.15627	95.99847
11250.00000	95.53848	-362.42987	95.53848
11300.00000	95.04719	-364.81750	95.04719
11350.00000	94.60904	-366.38362	94.60904
11400.00000	94.06639	-368.30479	94.06639
11450.00000	93.67330	-370.35181	93.67330
11500.00000	93.32904	-371.30527	93.32904
11550.00000	92.82839	-372.17392	92.82839
11600.00000	92.52515	-373.82173	92.52515
11650.00000	92.12665	-373.29604	92.12665
11700.00000	91.80873	-373.80296	91.80873
11750.00000	91.45340	-374.34988	91.45340
11800.00000	91.08071	-375.05959	91.08071
11850.00000	90.80060	-374.65690	90.80060
11900.00000	90.28971	-375.23459	90.28971
11950.00000	89.89035	-375.01039	89.89035
12000.00000	89.59543	-374.24989	89.59543
12050.00000	89.20206	-374.00847	89.20206
12100.00000	88.95852	-374.25556	88.95852
12150.00000	88.71184	-374.14908	88.71184
12200.00000	88.55684	-374.93483	88.55684
12250.00000	88.30865	-373.17618	88.30865
12300.00000	89.27514	-372.68974	89.27514
12350.00000	87.91997	-371.74693	87.91997
12400.00000	87.81061	-370.26154	87.81061
12450.00000	87.67952	-369.30961	87.67952
12500.00000	87.40141	-368.77083	87.40141
12550.00000	87.25751	-368.27374	87.25751
12600.00000	87.11497	-368.15140	87.11497
12650.00000	87.27893	-368.18211	87.27893
12700.00000	87.02509	-367.91372	87.02509
12750.00000	87.08358	-368.60958	87.08358
12800.00000	87.05334	-366.41593	87.05334
12850.00000	86.68497	-365.73225	86.68497
12900.00000	86.63113	-365.65702	86.63113
12950.00000	86.72368	-365.41209	86.72368
13000.00000	86.56893	-365.52089	86.56893
13050.00000	86.63217	-364.31667	86.63217
13100.00000	86.51840	-364.47594	86.51840
13150.00000	86.63364	-364.71282	86.63364
13200.00000	86.67482	-362.37724	86.67482
13250.00000	86.63302	-361.67749	86.63302
13300.00000	86.66158	-358.98595	86.66158
13350.00000	86.65971	-359.40961	86.65971
13400.00000	86.79237	-358.96753	86.79237
13450.00000	86.69705	-358.14839	86.69705
13500.00000	86.98343	-356.78408	86.98343
13550.00000	86.91312	-356.51058	86.91312
13600.00000	87.12999	-355.81693	87.12999
13650.00000	87.11623	-354.76500	87.11623
13700.00000	87.18439	-353.98069	87.18439
13750.00000	87.19738	-353.25902	87.19738
13800.00000	87.19969	-354.83971	87.19969
13850.00000	87.36480	-354.54545	87.36480
13900.00000	87.57538	-354.34193	87.57538
13950.00000	87.83999	-353.52604	87.83999
14000.00000	88.14062	-351.82723	88.14062
14050.00000	88.52097	-351.72328	88.52097
14100.00000	88.50769	-350.26246	88.50769
14150.00000	88.83164	-350.23899	88.83164
14200.00000	89.24621	-350.58964	89.24621
14250.00000	89.81045	-347.69506	89.81045
14300.00000	90.01737	-348.70122	90.01737
14350.00000	90.34938	-347.37049	90.34938
14400.00000	90.38533	-347.22715	90.38533
14450.00000	90.61953	-345.78851	90.61953
14500.00000	90.91691	-346.67064	90.91691
14550.00000	91.41080	-346.47901	91.41080
14600.00000	91.63987	-347.86261	91.63987
14650.00000	92.25108	-346.31497	92.25108
14700.00000	92.60916	-350.89223	92.60916
14750.00000	93.09561	-350.57591	93.09561
14800.00000	93.34989	-350.52414	93.34989
14850.00000	93.88680	-350.84613	93.88680
14900.00000	94.40759	-352.32732	94.40759
14950.00000	94.86418	-353.52349	94.86418
15000.00000	95.34635	-354.56023	95.34635
15050.00000	95.62944	-354.38710	95.62944
15100.00000	96.10010	-354.90290	96.10010
15150.00000	96.65731	-357.00438	96.65731
15200.00000	97.02099	-357.09708	97.02099
15250.00000	97.36874	-360.05667	97.36874
15300.00000	97.98462	-362.05273	97.98462
15350.00000	98.37658	-364.54399	98.37658
15400.00000	98.78452	-365.44833	98.78452
15450.00000	99.24044	-367.95323	99.24044
15500.00000	99.75989	-370.47798	99.75989
15550.00000	100.22684	-373.18278	100.22684
15600.00000	100.62972	-376.05881	100.62972
15650.00000	101.19515	-377.46730	101.19515
15700.00000	101.42235	-381.50597	101.42235
15750.00000	101.95872	-384.25434	101.95872
15800.00000	102.36735	-386.46378	102.36735
15850.00000	102.71930	-389.53456	102.71930
15900.00000	102.98274	-393.23665	102.98274
15950.00000	103.34940	-396.79039	103.34940
16000.00000	103.66106	-400.12881	103.66106
16050.00000	104.02417	-403.50448	104.02417
16100.00000	104.13182	-407.42274	104.13182
16150.00000	104.35627	-410.94984	104.35627
16200.00000	104.60376	-415.29027	104.60376
16250.00000	104.81081	-418.45579	104.81081
16300.00000	105.14362	-422.20008	105.14362
16350.00000	105.29011	-425.56458	105.29011
16400.00000	105.42855	-428.64615	105.42855
16450.00000	105.56174	-432.02896	105.56174
16500.00000	105.66801	-435.43022	105.66801
16550.00000	105.84672	-439.15361	105.84672
16600.00000	106.00164	-442.40943	106.00164
16650.00000	106.06009	-445.44850	106.06009
16700.00000	106.19351	-448.31690	106.19351
16750.00000	106.21683	-451.74659	106.21683
16800.00000	106.37786	-455.10779	106.37786
16850.00000	106.54524	-458.20954	106.54524
16900.00000	106.68705	-461.21309	106.68705
16950.00000	106.77015	-464.17459	106.77015
17000.00000	106.76810	-467.43086	106.76810
17050.00000	106.92007	-469.75009	106.92007
17100.00000	106.97635	-471.74718	106.97635
17150.00000	107.18819	-475.48230	107.18819
17200.00000	107.32039	-478.39902	107.32039
17250.00000	107.35629	-481.90658	107.35629
17300.00000	107.55834	-484.73391	107.55834
17350.00000	107.55188	-487.49585	107.55188
17400.00000	107.74212	-490.60762	107.74212
17450.00000	107.80871	-494.18920	107.80871
17500.00000	107.95822	-497.26594	107.95822
17550.00000	108.05942	-500.40458	108.05942
17600.00000	108.26457	-503.14876	108.26457
17650.00000	108.33254	-507.17354	108.33254
17700.00000	108.39036	-510.64057	108.39036
17750.00000	108.60752	-513.28511	108.60752
17800.00000	108.58399	-517.48902	108.58399
17850.00000	108.68803	-520.36282	108.68803
17900.00000	108.73452	-523.90989	108.73452
17950.00000	108.86870	-527.63889	108.86870
18000.00000	108.92121	-531.65312	108.92121
18050.00000	109.07389	-534.66634	109.07389
18100.00000	109.03830	-538.93429	109.03830
18150.00000	109.05222	-541.85861	109.05222
18200.00000	109.01129	-545.98736	109.01129
18250.00000	109.10754	-548.88561	109.10754
18300.00000	109.14906	-552.59230	109.14906
18350.00000	109.12810	-556.08228	109.12810
18400.00000	109.07391	-559.91533	109.07391
18450.00000	108.99387	-564.45297	108.99387
18500.00000	108.97645	-568.02801	108.97645
18550.00000	108.92509	-570.98819	108.92509
18600.00000	108.96403	-574.89993	108.96403
18650.00000	108.81265	-578.14622	108.81265
18700.00000	108.68729	-581.80957	108.68729
18750.00000	108.63777	-585.19965	108.63777
18800.00000	108.67987	-587.77253	108.67987
18850.00000	108.45925	-591.28552	108.45925
18900.00000	108.36652	-594.34526	108.36652
18950.00000	108.28007	-597.95648	108.28007
19000.00000	108.06864	-600.48645	108.06864
19050.00000	108.13332	-603.66150	108.13332
19100.00000	107.96032	-606.36848	107.96032
19150.00000	108.02178	-609.21659	108.02178
19200.00000	107.93934	-611.78069	107.93934
19250.00000	107.81488	-616.06862	107.81488
19300.00000	107.70982	-617.88942	107.70982
19350.00000	107.65649	-620.83988	107.65649
19400.00000	107.54392	-623.66890	107.54392
19450.00000	107.58459	-625.86434	107.58459
19500.00000	107.42997	-629.60970	107.42997
19550.00000	107.38999	-632.50047	107.38999
19600.00000	107.41278	-635.94480	107.41278
19650.00000	107.29112	-638.45716	107.29112
19700.00000	107.12653	-641.52785	107.12653
19750.00000	107.04402	-643.95054	107.04402
19800.00000	107.06006	-647.83572	107.06006
19850.00000	106.99898	-650.53556	106.99898
19900.00000	106.87435	-654.34596	106.87435
19950.00000	106.76220	-657.20488	106.76220
20000.00000	106.68258	-660.36041	106.68258
20050.00000	106.60057	-663.56790	106.60057
20100.00000	106.38556	-666.73187	106.38556
20150.00000	106.33282	-669.12454	106.33282
20200.00000	106.15584	-672.94353	106.15584
20250.00000	105.96400	-675.97632	105.96400
20300.00000	105.73889	-679.13583	105.73889
20350.00000	105.63586	-682.40169	105.63586
20400.00000	105.38960	-684.76094	105.38960
20450.00000	105.10655	-687.90488	105.10655
20500.00000	104.94010	-691.22468	104.94010
20550.00000	104.47572	-693.29629	104.47572
20600.00000	104.29635	-695.89558	104.29635
20650.00000	104.02609	-698.49594	104.02609
20700.00000	103.65943	-700.85126	103.65943
20750.00000	103.41633	-703.02738	103.41633
20800.00000	103.04767	-704.62130	103.04767
20850.00000	102.77126	-706.66721	102.77126
20900.00000	102.39972	-708.06826	102.39972
20950.00000	102.04379	-708.88652	102.04379
21000.00000	101.75346	-709.76664	101.75346
21050.00000	101.60516	-710.17524	101.60516
21100.00000	101.31631	-710.38710	101.31631
21150.00000	101.17659	-710.99574	101.17659
21200.00000	101.05966	-710.93195	101.05966
21250.00000	100.93205	-712.23898	100.93205
21300.00000	100.90302	-712.05064	100.90302
21350.00000	100.83078	-712.22252	100.83078
21400.00000	100.78259	-713.10145	100.78259
21450.00000	100.80995	-713.73487	100.80995
21500.00000	100.82306	-714.74148	100.82306
21550.00000	100.76578	-715.45754	100.76578
21600.00000	100.84430	-716.57898	100.84430
21650.00000	100.84290	-717.94191	100.84290
21700.00000	100.84311	-718.91478	100.84311
21750.00000	100.91108	-720.20577	100.91108
21800.00000	100.92338	-721.58024	100.92338
21850.00000	100.87376	-722.72477	100.87376
21900.00000	100.93953	-724.24641	100.93953
21950.00000	100.92227	-725.38968	100.92227
22000.00000	101.04299	-726.74392	101.04299
22050.00000	101.01200	-727.52974	101.01200
22100.00000	101.03888	-729.43737	101.03888
22150.00000	101.04731	-730.41014	101.04731
22200.00000	101.13278	-731.98361	101.13278
22250.00000	101.14748	-732.87931	101.14748
22300.00000	101.04820	-734.56221	101.04820
22350.00000	101.26264	-736.48051	101.26264
22400.00000	101.26660	-737.75993	101.26660
22450.00000	101.30619	-739.41989	101.30619
22500.00000	101.30700	-739.75750	101.30700
22550.00000	101.36535	-741.74200	101.36535
22600.00000	101.43467	-743.96288	101.43467
22650.00000	101.46024	-745.53316	101.46024
22700.00000	101.47406	-746.49679	101.47406
22750.00000	101.50121	-746.76515	101.50121
