---ACOUSTIC CALIBRATION---
Filename: C:\Data\AZH DATA\AZH81\RightPrimary.calib
Date: 8/27/2019 4:24:55 PM
Format: 4
Probe Tube Correction File: C:\Data\Probe Tube Calibrations\50_ProbeTube.calib
Experiment VIs: 850
EPL_CFTS.exe V12.0.1 (2012)
DAQmx V9.6

Attenuation (dB): 40.000000
Min Freq (Hz): 50.000000
Max Freq (Hz): 49950.000000
Freq Step (Hz): 50.000000
Sample Rate (Hz): 100000.000000
[Smoothing]
Method=None
MA.Iterations=0
MA.Length=0
Loess.Length=0
Loess.Type=Linear
Loess.Robust=FALSE


Freq(Hz)	Mag(dB)	Phase(deg)	Unsmoothed(dB)

50.00000	109.38729	494.67878	109.38729
100.00000	81.52935	556.02923	81.52935
150.00000	82.48597	481.87453	82.48597
200.00000	84.10159	458.37712	84.10159
250.00000	93.38949	439.90035	93.38949
300.00000	90.97812	388.34112	90.97812
350.00000	87.86778	393.40228	87.86778
400.00000	87.18918	390.26563	87.18918
450.00000	89.72418	367.47427	89.72418
500.00000	93.03758	368.46986	93.03758
550.00000	94.15565	377.52342	94.15565
600.00000	97.83716	365.15986	97.83716
650.00000	99.30493	354.34335	99.30493
700.00000	101.72407	337.20516	101.72407
750.00000	103.10487	318.85011	103.10487
800.00000	104.20421	295.72292	104.20421
850.00000	103.42541	279.17652	103.42541
900.00000	102.08107	261.97051	102.08107
950.00000	100.15654	258.40323	100.15654
1000.00000	98.84946	257.00438	98.84946
1050.00000	96.63439	269.29344	96.63439
1100.00000	97.48270	289.80293	97.48270
1150.00000	100.16887	300.67742	100.16887
1200.00000	103.15443	298.40358	103.15443
1250.00000	104.98866	291.92032	104.98866
1300.00000	106.78637	285.99612	106.78637
1350.00000	108.11608	277.21505	108.11608
1400.00000	109.12844	268.57070	109.12844
1450.00000	110.07687	262.75023	110.07687
1500.00000	111.14483	255.45983	111.14483
1550.00000	111.86934	247.37584	111.86934
1600.00000	113.43468	237.88752	113.43468
1650.00000	114.46605	221.82678	114.46605
1700.00000	113.38682	211.42350	113.38682
1750.00000	113.20481	205.14033	113.20481
1800.00000	113.01273	199.92427	113.01273
1850.00000	113.04475	197.97301	113.04475
1900.00000	114.11084	194.16239	114.11084
1950.00000	114.88645	181.24848	114.88645
2000.00000	114.06635	168.42134	114.06635
2050.00000	112.51015	170.67691	112.51015
2100.00000	114.09522	172.57848	114.09522
2150.00000	114.97452	162.12286	114.97452
2200.00000	114.95913	151.23130	114.95913
2250.00000	114.36722	144.35336	114.36722
2300.00000	114.48587	138.15015	114.48587
2350.00000	114.20361	131.97623	114.20361
2400.00000	113.99196	126.07605	113.99196
2450.00000	113.62858	119.81688	113.62858
2500.00000	113.31010	114.33479	113.31010
2550.00000	112.83928	109.20636	112.83928
2600.00000	112.35634	104.92414	112.35634
2650.00000	111.85354	100.89636	111.85354
2700.00000	111.41809	97.06982	111.41809
2750.00000	110.83341	93.68319	110.83341
2800.00000	110.25822	91.08041	110.25822
2850.00000	109.70659	88.76967	109.70659
2900.00000	109.17725	86.40606	109.17725
2950.00000	108.61462	85.38687	108.61462
3000.00000	108.06961	83.96383	108.06961
3050.00000	107.42401	82.93243	107.42401
3100.00000	106.85338	82.74075	106.85338
3150.00000	105.99279	81.17340	105.99279
3200.00000	104.82901	83.73021	104.82901
3250.00000	103.80802	89.99785	103.80802
3300.00000	102.96322	97.77225	102.96322
3350.00000	102.26382	110.48714	102.26382
3400.00000	102.84697	129.55081	102.84697
3450.00000	104.94367	142.67590	104.94367
3500.00000	107.53299	148.26774	107.53299
3550.00000	109.73165	147.64971	109.73165
3600.00000	111.73952	145.13609	111.73952
3650.00000	113.35721	140.57767	113.35721
3700.00000	114.71657	135.96571	114.71657
3750.00000	116.07719	131.10026	116.07719
3800.00000	117.32873	125.24320	117.32873
3850.00000	118.40565	118.83313	118.40565
3900.00000	119.44458	112.51105	119.44458
3950.00000	120.44544	105.63688	120.44544
4000.00000	121.33363	98.25866	121.33363
4050.00000	122.16329	91.09961	122.16329
4100.00000	123.02986	83.82244	123.02986
4150.00000	124.08799	75.63245	124.08799
4200.00000	124.90818	66.01700	124.90818
4250.00000	125.67786	55.02742	125.67786
4300.00000	126.25187	42.84751	126.25187
4350.00000	126.48671	29.98994	126.48671
4400.00000	126.42895	17.75315	126.42895
4450.00000	126.15968	 6.16306	126.15968
4500.00000	125.75449	-4.21835	125.75449
4550.00000	125.28907	-13.98618	125.28907
4600.00000	124.74781	-22.93052	124.74781
4650.00000	124.24617	-31.18668	124.24617
4700.00000	123.67516	-39.64923	123.67516
4750.00000	123.00932	-48.15504	123.00932
4800.00000	122.17133	-56.56700	122.17133
4850.00000	121.08391	-64.36953	121.08391
4900.00000	119.75924	-70.43390	119.75924
4950.00000	118.36308	-73.89458	118.36308
5000.00000	117.00765	-74.88152	117.00765
5050.00000	115.90182	-74.68767	115.90182
5100.00000	114.69027	-71.60855	114.69027
5150.00000	114.42737	-65.41896	114.42737
5200.00000	113.62968	-63.25664	113.62968
5250.00000	114.00106	-47.70340	114.00106
5300.00000	117.02119	-48.18478	117.02119
5350.00000	118.03897	-62.51670	118.03897
5400.00000	117.64689	-72.77493	117.64689
5450.00000	117.10431	-78.30882	117.10431
5500.00000	116.64711	-82.19069	116.64711
5550.00000	116.31997	-85.09257	116.31997
5600.00000	116.04931	-87.83147	116.04931
5650.00000	115.83865	-90.28700	115.83865
5700.00000	115.65675	-92.99491	115.65675
5750.00000	115.51270	-95.55573	115.51270
5800.00000	115.33975	-98.14148	115.33975
5850.00000	115.22621	-100.78799	115.22621
5900.00000	115.09083	-103.26903	115.09083
5950.00000	114.99028	-105.80438	114.99028
6000.00000	114.88071	-108.20262	114.88071
6050.00000	114.78667	-110.68774	114.78667
6100.00000	114.70194	-113.16521	114.70194
6150.00000	114.63589	-115.66910	114.63589
6200.00000	114.57257	-118.20469	114.57257
6250.00000	114.54368	-120.82767	114.54368
6300.00000	114.51542	-123.52976	114.51542
6350.00000	114.46960	-126.40048	114.46960
6400.00000	114.42240	-129.25508	114.42240
6450.00000	114.39371	-132.17201	114.39371
6500.00000	114.31987	-135.12104	114.31987
6550.00000	114.25640	-138.05745	114.25640
6600.00000	114.19992	-140.89391	114.19992
6650.00000	114.16582	-143.59992	114.16582
6700.00000	114.14256	-146.67149	114.14256
6750.00000	114.11347	-149.58729	114.11347
6800.00000	114.08656	-152.49966	114.08656
6850.00000	114.06030	-155.54615	114.06030
6900.00000	114.05622	-158.56854	114.05622
6950.00000	114.03302	-161.62121	114.03302
7000.00000	114.04755	-164.82836	114.04755
7050.00000	114.03022	-168.22489	114.03022
7100.00000	114.04324	-171.68882	114.04324
7150.00000	114.03511	-175.15643	114.03511
7200.00000	114.01818	-178.93125	114.01818
7250.00000	113.97389	-182.84088	113.97389
7300.00000	113.96278	-186.75886	113.96278
7350.00000	113.89380	-190.74311	113.89380
7400.00000	113.81928	-194.99369	113.81928
7450.00000	113.72860	-199.30778	113.72860
7500.00000	113.62732	-203.83557	113.62732
7550.00000	113.46375	-208.03617	113.46375
7600.00000	113.27131	-212.42932	113.27131
7650.00000	113.06881	-216.79026	113.06881
7700.00000	112.88598	-221.17334	112.88598
7750.00000	112.58106	-225.59979	112.58106
7800.00000	112.29541	-229.88058	112.29541
7850.00000	111.98047	-233.97571	111.98047
7900.00000	111.65758	-237.84567	111.65758
7950.00000	111.30520	-241.72285	111.30520
8000.00000	110.92688	-245.48589	110.92688
8050.00000	110.54461	-249.33603	110.54461
8100.00000	110.13926	-252.29109	110.13926
8150.00000	109.67234	-255.40183	109.67234
8200.00000	109.26808	-258.09729	109.26808
8250.00000	108.79466	-261.21171	108.79466
8300.00000	108.32792	-263.92226	108.32792
8350.00000	107.85569	-266.27662	107.85569
8400.00000	107.40075	-269.26048	107.40075
8450.00000	106.90617	-271.91077	106.90617
8500.00000	106.45227	-274.45947	106.45227
8550.00000	106.06755	-276.63007	106.06755
8600.00000	105.69234	-279.07452	105.69234
8650.00000	105.29475	-280.88670	105.29475
8700.00000	105.00935	-282.93478	105.00935
8750.00000	104.61886	-283.47687	104.61886
8800.00000	104.32438	-284.74272	104.32438
8850.00000	103.93279	-285.83725	103.93279
8900.00000	103.56338	-286.28828	103.56338
8950.00000	103.16566	-287.40889	103.16566
9000.00000	102.69046	-288.52364	102.69046
9050.00000	102.29624	-290.19523	102.29624
9100.00000	101.82411	-291.75748	101.82411
9150.00000	101.46728	-293.76731	101.46728
9200.00000	101.20404	-295.86231	101.20404
9250.00000	100.90796	-298.17536	100.90796
9300.00000	100.80332	-299.78706	100.80332
9350.00000	100.73967	-301.36110	100.73967
9400.00000	100.56967	-301.73829	100.56967
9450.00000	100.45197	-302.14366	100.45197
9500.00000	100.35181	-301.14562	100.35181
9550.00000	100.24770	-300.05527	100.24770
9600.00000	100.20367	-300.31741	100.20367
9650.00000	99.94867	-301.11830	99.94867
9700.00000	99.64071	-301.41895	99.64071
9750.00000	99.42570	-303.64785	99.42570
9800.00000	99.16699	-305.05366	99.16699
9850.00000	99.05094	-306.44235	99.05094
9900.00000	98.88788	-308.48279	98.88788
9950.00000	98.91726	-309.57815	98.91726
10000.00000	98.98093	-311.14149	98.98093
10050.00000	98.98759	-311.90564	98.98759
10100.00000	98.93339	-312.36673	98.93339
10150.00000	98.77203	-313.50137	98.77203
10200.00000	98.64755	-314.43778	98.64755
10250.00000	98.39274	-316.07823	98.39274
10300.00000	98.24060	-317.86051	98.24060
10350.00000	98.04137	-319.99813	98.04137
10400.00000	97.82841	-322.81506	97.82841
10450.00000	97.84632	-325.85308	97.84632
10500.00000	97.88695	-328.39253	97.88695
10550.00000	97.89961	-330.71119	97.89961
10600.00000	97.87148	-332.27974	97.87148
10650.00000	97.81578	-333.56372	97.81578
10700.00000	97.70063	-335.78270	97.70063
10750.00000	97.60446	-337.43424	97.60446
10800.00000	97.34180	-339.05153	97.34180
10850.00000	97.07953	-342.15965	97.07953
10900.00000	96.88290	-344.68211	96.88290
10950.00000	96.68722	-347.00159	96.68722
11000.00000	96.52800	-349.45602	96.52800
11050.00000	96.24185	-351.78521	96.24185
11100.00000	96.02878	-354.16571	96.02878
11150.00000	95.71851	-355.82710	95.71851
11200.00000	95.48287	-357.22559	95.48287
11250.00000	95.08670	-359.43719	95.08670
11300.00000	94.66690	-361.30117	94.66690
11350.00000	94.30361	-362.72505	94.30361
11400.00000	93.82425	-364.45721	93.82425
11450.00000	93.48255	-366.58393	93.48255
11500.00000	93.26557	-367.46568	93.26557
11550.00000	92.82895	-368.60218	92.82895
11600.00000	92.59825	-370.13934	92.59825
11650.00000	92.25410	-369.88650	92.25410
11700.00000	92.03819	-370.44796	92.03819
11750.00000	91.74926	-371.17704	91.74926
11800.00000	91.49579	-372.01707	91.49579
11850.00000	91.13646	-371.40125	91.13646
11900.00000	90.72092	-371.90436	90.72092
11950.00000	90.42938	-371.77050	90.42938
12000.00000	90.00377	-371.25955	90.00377
12050.00000	89.64018	-370.89109	89.64018
12100.00000	89.37073	-371.65742	89.37073
12150.00000	89.23708	-372.36666	89.23708
12200.00000	89.09077	-372.38222	89.09077
12250.00000	88.97336	-371.43450	88.97336
12300.00000	89.91644	-370.85035	89.91644
12350.00000	88.78326	-369.53001	88.78326
12400.00000	88.63785	-368.23775	88.63785
12450.00000	88.45767	-366.70868	88.45767
12500.00000	88.11124	-366.56274	88.11124
12550.00000	87.99158	-366.42607	87.99158
12600.00000	87.78255	-366.48785	87.78255
12650.00000	87.99166	-367.17194	87.99166
12700.00000	87.92887	-367.69853	87.92887
12750.00000	88.00207	-367.93213	88.00207
12800.00000	88.03041	-366.79852	88.03041
12850.00000	87.76696	-365.13792	87.76696
12900.00000	87.73966	-364.59521	87.73966
12950.00000	87.71443	-364.60178	87.71443
13000.00000	87.47734	-364.67057	87.47734
13050.00000	87.42773	-364.25322	87.42773
13100.00000	87.44013	-364.72792	87.44013
13150.00000	87.63273	-364.82624	87.63273
13200.00000	87.66447	-364.02111	87.66447
13250.00000	87.70182	-363.26398	87.70182
13300.00000	87.77007	-360.12336	87.77007
13350.00000	87.61879	-360.72566	87.61879
13400.00000	87.69723	-360.05594	87.69723
13450.00000	87.70108	-360.11720	87.70108
13500.00000	87.90671	-359.11875	87.90671
13550.00000	87.88826	-359.44450	87.88826
13600.00000	88.05107	-357.80743	88.05107
13650.00000	88.26370	-356.42211	88.26370
13700.00000	88.10167	-356.20118	88.10167
13750.00000	87.94359	-355.68498	87.94359
13800.00000	88.00141	-358.01121	88.00141
13850.00000	88.11011	-358.74738	88.11011
13900.00000	88.29320	-357.25108	88.29320
13950.00000	88.80725	-356.73010	88.80725
14000.00000	89.12617	-354.93073	89.12617
14050.00000	89.25882	-353.62426	89.25882
14100.00000	89.26902	-352.86290	89.26902
14150.00000	89.60720	-353.51989	89.60720
14200.00000	89.85725	-353.80402	89.85725
14250.00000	90.47258	-351.71500	90.47258
14300.00000	90.69002	-351.20985	90.69002
14350.00000	91.02872	-349.94712	91.02872
14400.00000	90.99715	-350.64947	90.99715
14450.00000	91.27717	-348.34205	91.27717
14500.00000	91.54617	-349.40711	91.54617
14550.00000	91.89229	-349.22481	91.89229
14600.00000	92.18541	-350.82576	92.18541
14650.00000	92.80044	-349.53595	92.80044
14700.00000	93.27977	-353.75033	93.27977
14750.00000	93.73686	-353.36148	93.73686
14800.00000	94.10946	-352.52426	94.10946
14850.00000	94.54964	-353.16319	94.54964
14900.00000	94.94927	-354.44599	94.94927
14950.00000	95.44875	-355.81060	95.44875
15000.00000	96.00693	-358.39123	96.00693
15050.00000	96.31646	-357.93462	96.31646
15100.00000	96.93647	-357.85753	96.93647
15150.00000	97.46965	-359.92791	97.46965
15200.00000	97.73983	-360.38126	97.73983
15250.00000	98.03997	-363.53332	98.03997
15300.00000	98.66014	-366.06884	98.66014
15350.00000	99.09175	-369.43762	99.09175
15400.00000	99.54145	-370.47141	99.54145
15450.00000	99.94509	-373.04500	99.94509
15500.00000	100.45661	-375.83045	100.45661
15550.00000	100.85747	-379.20042	100.85747
15600.00000	101.15354	-382.14041	101.15354
15650.00000	101.65593	-383.77410	101.65593
15700.00000	101.83464	-388.58054	101.83464
15750.00000	102.28414	-391.37970	102.28414
15800.00000	102.60539	-393.83591	102.60539
15850.00000	102.82842	-396.95069	102.82842
15900.00000	102.97347	-400.60724	102.97347
15950.00000	103.21270	-403.96925	103.21270
16000.00000	103.43946	-407.32150	103.43946
16050.00000	103.74113	-409.92918	103.74113
16100.00000	103.75900	-413.40292	103.75900
16150.00000	103.91172	-416.28363	103.91172
16200.00000	104.09626	-419.73445	104.09626
16250.00000	104.23057	-422.48447	104.23057
16300.00000	104.58691	-425.59992	104.58691
16350.00000	104.68832	-428.47490	104.68832
16400.00000	104.86693	-430.92487	104.86693
16450.00000	105.02512	-433.59641	105.02512
16500.00000	105.17223	-436.51220	105.17223
16550.00000	105.34618	-439.93698	105.34618
16600.00000	105.55071	-442.74448	105.55071
16650.00000	105.67106	-445.44327	105.67106
16700.00000	105.87698	-448.22279	105.87698
16750.00000	105.94211	-451.51973	105.94211
16800.00000	106.11842	-454.80366	106.11842
16850.00000	106.31333	-457.84162	106.31333
16900.00000	106.47046	-461.09481	106.47046
16950.00000	106.63193	-464.05155	106.63193
17000.00000	106.61564	-467.45889	106.61564
17050.00000	106.81595	-469.65986	106.81595
17100.00000	106.84548	-471.91262	106.84548
17150.00000	107.09365	-475.74867	107.09365
17200.00000	107.21127	-478.63437	107.21127
17250.00000	107.26507	-482.35286	107.26507
17300.00000	107.46459	-485.27456	107.46459
17350.00000	107.45412	-487.95177	107.45412
17400.00000	107.61584	-491.25066	107.61584
17450.00000	107.63513	-494.92603	107.63513
17500.00000	107.80036	-498.01860	107.80036
17550.00000	107.88008	-501.27284	107.88008
17600.00000	108.05115	-504.10128	108.05115
17650.00000	108.09732	-508.08269	108.09732
17700.00000	108.15866	-511.72712	108.15866
17750.00000	108.33154	-514.37371	108.33154
17800.00000	108.26431	-518.47258	108.26431
17850.00000	108.34344	-521.40698	108.34344
17900.00000	108.35541	-524.86684	108.35541
17950.00000	108.47263	-528.67868	108.47263
18000.00000	108.47331	-532.61335	108.47331
18050.00000	108.60378	-535.57252	108.60378
18100.00000	108.52482	-539.52755	108.52482
18150.00000	108.51306	-542.46947	108.51306
18200.00000	108.43096	-546.41327	108.43096
18250.00000	108.46224	-549.08425	108.46224
18300.00000	108.47485	-552.38995	108.47485
18350.00000	108.42306	-555.71175	108.42306
18400.00000	108.35674	-559.34721	108.35674
18450.00000	108.27068	-563.53551	108.27068
18500.00000	108.22623	-566.83012	108.22623
18550.00000	108.17304	-569.43368	108.17304
18600.00000	108.19473	-573.17727	108.19473
18650.00000	107.99156	-576.09973	107.99156
18700.00000	107.90167	-579.56048	107.90167
18750.00000	107.86460	-582.64370	107.86460
18800.00000	107.89687	-585.23050	107.89687
18850.00000	107.69213	-588.52554	107.69213
18900.00000	107.57227	-591.41361	107.57227
18950.00000	107.52101	-594.89505	107.52101
19000.00000	107.25608	-597.44363	107.25608
19050.00000	107.32101	-600.42099	107.32101
19100.00000	107.14132	-602.94881	107.14132
19150.00000	107.17510	-605.67217	107.17510
19200.00000	107.05790	-608.10294	107.05790
19250.00000	106.93409	-611.80646	106.93409
19300.00000	106.80524	-613.80454	106.80524
19350.00000	106.72230	-616.53731	106.72230
19400.00000	106.58820	-619.10896	106.58820
19450.00000	106.60377	-621.19357	106.60377
19500.00000	106.40754	-624.62821	106.40754
19550.00000	106.35431	-627.19748	106.35431
19600.00000	106.32609	-630.27123	106.32609
19650.00000	106.19233	-632.40579	106.19233
19700.00000	106.01163	-635.09355	106.01163
19750.00000	105.91395	-637.14340	105.91395
19800.00000	105.89787	-640.61779	105.89787
19850.00000	105.81742	-642.85853	105.81742
19900.00000	105.67255	-646.13634	105.67255
19950.00000	105.56490	-648.53409	105.56490
20000.00000	105.46014	-651.21455	105.46014
20050.00000	105.36149	-653.70180	105.36149
20100.00000	105.16226	-656.41709	105.16226
20150.00000	105.12344	-658.03408	105.12344
20200.00000	104.95140	-661.36739	104.95140
20250.00000	104.77867	-663.62125	104.77867
20300.00000	104.55565	-666.19249	104.55565
20350.00000	104.49006	-668.75318	104.49006
20400.00000	104.28201	-670.41047	104.28201
20450.00000	104.05293	-672.69256	104.05293
20500.00000	103.94247	-675.28203	103.94247
20550.00000	103.55778	-676.49954	103.55778
20600.00000	103.44581	-678.22436	103.44581
20650.00000	103.29248	-680.09376	103.29248
20700.00000	103.05115	-681.67668	103.05115
20750.00000	102.93021	-683.05695	102.93021
20800.00000	102.73293	-684.03245	102.73293
20850.00000	102.62108	-685.53543	102.62108
20900.00000	102.43876	-686.63299	102.43876
20950.00000	102.27397	-687.04359	102.27397
21000.00000	102.18474	-687.75965	102.18474
21050.00000	102.24538	-688.18777	102.24538
21100.00000	102.18244	-688.71263	102.18244
21150.00000	102.24554	-689.66316	102.24554
21200.00000	102.32905	-690.16598	102.32905
21250.00000	102.38173	-692.33478	102.38173
21300.00000	102.50142	-692.92309	102.50142
21350.00000	102.57678	-694.05561	102.57678
21400.00000	102.64243	-695.99126	102.64243
21450.00000	102.73162	-697.67449	102.73162
21500.00000	102.83404	-699.89333	102.83404
21550.00000	102.80443	-701.54510	102.80443
21600.00000	102.92767	-703.79487	102.92767
21650.00000	102.94043	-705.96498	102.94043
21700.00000	102.93117	-707.75378	102.93117
21750.00000	102.96018	-709.98992	102.96018
21800.00000	102.96939	-712.14504	102.96939
21850.00000	102.88799	-714.26118	102.88799
21900.00000	102.91370	-716.29262	102.91370
21950.00000	102.85648	-717.84205	102.85648
22000.00000	102.92229	-719.74006	102.92229
22050.00000	102.85249	-721.22904	102.85249
22100.00000	102.80971	-723.21343	102.80971
22150.00000	102.77307	-724.98667	102.77307
22200.00000	102.84063	-726.85529	102.84063
22250.00000	102.78259	-727.92769	102.78259
22300.00000	102.64619	-729.85789	102.64619
22350.00000	102.82012	-731.91587	102.82012
22400.00000	102.81789	-733.68880	102.81789
22450.00000	102.78134	-735.45190	102.78134
22500.00000	102.69817	-735.75337	102.69817
22550.00000	102.81109	-738.12901	102.81109
22600.00000	102.74476	-740.72735	102.74476
22650.00000	102.76961	-742.52452	102.76961
22700.00000	102.77189	-743.63976	102.77189
22750.00000	102.77871	-743.96867	102.77871
