---ACOUSTIC CALIBRATION---
Filename: C:\Data\AZH DATA\AZH81\RightPrimary.calib
Date: 8/27/2019 4:24:41 PM
Format: 4
Probe Tube Correction File: C:\Data\Probe Tube Calibrations\50_ProbeTube.calib
Experiment VIs: 850
EPL_CFTS.exe V12.0.1 (2012)
DAQmx V9.6

Attenuation (dB): 40.000000
Min Freq (Hz): 50.000000
Max Freq (Hz): 49950.000000
Freq Step (Hz): 50.000000
Sample Rate (Hz): 100000.000000
[Smoothing]
Method=None
MA.Iterations=0
MA.Length=0
Loess.Length=0
Loess.Type=Linear
Loess.Robust=FALSE


Freq(Hz)	Mag(dB)	Phase(deg)	Unsmoothed(dB)

50.00000	108.84788	483.74456	108.84788
100.00000	82.71889	610.10863	82.71889
150.00000	81.19395	497.85049	81.19395
200.00000	84.51832	452.61767	84.51832
250.00000	93.24425	458.54260	93.24425
300.00000	89.32519	399.43488	89.32519
350.00000	85.71423	382.15442	85.71423
400.00000	89.97844	381.07403	89.97844
450.00000	90.11337	364.88095	90.11337
500.00000	90.93579	369.03053	90.93579
550.00000	95.45262	372.43907	95.45262
600.00000	97.83345	373.04395	97.83345
650.00000	100.44392	352.28393	100.44392
700.00000	102.07137	339.03345	102.07137
750.00000	103.83259	318.35834	103.83259
800.00000	103.77916	295.59127	103.77916
850.00000	103.86445	278.17806	103.86445
900.00000	102.28833	260.00281	102.28833
950.00000	100.66266	257.49130	100.66266
1000.00000	99.24025	255.98032	99.24025
1050.00000	97.12502	268.82559	97.12502
1100.00000	98.16224	290.71422	98.16224
1150.00000	100.80911	298.46598	100.80911
1200.00000	103.50312	300.68526	103.50312
1250.00000	105.61617	291.31776	105.61617
1300.00000	107.09286	286.62194	107.09286
1350.00000	108.71398	277.09406	108.71398
1400.00000	109.48568	268.66806	109.48568
1450.00000	110.50157	261.98538	110.50157
1500.00000	111.57558	254.01987	111.57558
1550.00000	112.34576	246.57537	112.34576
1600.00000	113.99115	237.34427	113.99115
1650.00000	114.96360	220.35183	114.96360
1700.00000	113.95149	210.79815	113.95149
1750.00000	113.71482	204.13190	113.71482
1800.00000	113.43482	199.47086	113.43482
1850.00000	113.60748	197.09143	113.60748
1900.00000	114.59653	193.19789	114.59653
1950.00000	115.42805	180.27816	115.42805
2000.00000	114.60403	167.47545	114.60403
2050.00000	113.04546	169.71773	113.04546
2100.00000	114.69886	171.88339	114.69886
2150.00000	115.48182	160.69899	115.48182
2200.00000	115.40262	150.41954	115.40262
2250.00000	114.86853	142.89006	114.86853
2300.00000	114.89165	137.33914	114.89165
2350.00000	114.69727	130.85106	114.69727
2400.00000	114.42084	124.71070	114.42084
2450.00000	114.11893	118.84686	114.11893
2500.00000	113.74837	113.32396	113.74837
2550.00000	113.26268	108.25246	113.26268
2600.00000	112.79195	103.95006	112.79195
2650.00000	112.30186	99.85064	112.30186
2700.00000	111.83872	96.43014	111.83872
2750.00000	111.29823	92.69612	111.29823
2800.00000	110.70459	89.52148	110.70459
2850.00000	110.16107	87.84309	110.16107
2900.00000	109.59187	85.66263	109.59187
2950.00000	109.05805	84.74742	109.05805
3000.00000	108.49969	83.09701	108.49969
3050.00000	107.82453	82.59065	107.82453
3100.00000	107.32072	82.01750	107.32072
3150.00000	106.43219	80.93228	106.43219
3200.00000	105.34879	83.29037	105.34879
3250.00000	104.22953	89.28351	104.22953
3300.00000	103.47261	97.46766	103.47261
3350.00000	102.84500	110.62602	102.84500
3400.00000	103.52355	128.15078	103.52355
3450.00000	105.57668	141.47305	105.57668
3500.00000	108.10533	146.50798	108.10533
3550.00000	110.32307	146.10001	110.32307
3600.00000	112.28420	143.60909	112.28420
3650.00000	113.87544	138.94146	113.87544
3700.00000	115.26758	134.33031	115.26758
3750.00000	116.59739	129.47976	116.59739
3800.00000	117.82319	123.40318	117.82319
3850.00000	118.89587	116.94102	118.89587
3900.00000	119.92522	110.55659	119.92522
3950.00000	120.91169	103.55478	120.91169
4000.00000	121.76853	96.15753	121.76853
4050.00000	122.59465	88.98641	122.59465
4100.00000	123.44032	81.68365	123.44032
4150.00000	124.48751	73.59944	124.48751
4200.00000	125.27414	63.91896	125.27414
4250.00000	126.04379	52.99280	126.04379
4300.00000	126.58863	40.87712	126.58863
4350.00000	126.81449	28.06786	126.81449
4400.00000	126.75763	15.76343	126.75763
4450.00000	126.47950	 4.38042	126.47950
4500.00000	126.06775	-6.03175	126.06775
4550.00000	125.59150	-15.64216	125.59150
4600.00000	125.04891	-24.54799	125.04891
4650.00000	124.53175	-32.76375	124.53175
4700.00000	123.96805	-41.21299	123.96805
4750.00000	123.28065	-49.74427	123.28065
4800.00000	122.43337	-58.15824	122.43337
4850.00000	121.33914	-65.80631	121.33914
4900.00000	120.04108	-71.68305	120.04108
4950.00000	118.61151	-75.07524	118.61151
5000.00000	117.30802	-76.14571	117.30802
5050.00000	116.20393	-75.85849	116.20393
5100.00000	114.95692	-72.93799	114.95692
5150.00000	114.76788	-66.77134	114.76788
5200.00000	113.94037	-64.54854	113.94037
5250.00000	114.34262	-48.92113	114.34262
5300.00000	117.34301	-49.92886	117.34301
5350.00000	118.31535	-64.21913	118.31535
5400.00000	117.88423	-74.16417	117.88423
5450.00000	117.34645	-79.75065	117.34645
5500.00000	116.89391	-83.49380	116.89391
5550.00000	116.55445	-86.39456	116.55445
5600.00000	116.28393	-89.11455	116.28393
5650.00000	116.09255	-91.55649	116.09255
5700.00000	115.90853	-94.33776	115.90853
5750.00000	115.74025	-96.79728	115.74025
5800.00000	115.57796	-99.18990	115.57796
5850.00000	115.47814	-101.86276	115.47814
5900.00000	115.34801	-104.57021	115.34801
5950.00000	115.24496	-106.86994	115.24496
6000.00000	115.12172	-109.29384	115.12172
6050.00000	115.03013	-111.97025	115.03013
6100.00000	114.94542	-114.29637	114.94542
6150.00000	114.91277	-116.66500	114.91277
6200.00000	114.84081	-119.34459	114.84081
6250.00000	114.80628	-121.95200	114.80628
6300.00000	114.80018	-124.88697	114.80018
6350.00000	114.76036	-127.76960	114.76036
6400.00000	114.72548	-130.57396	114.72548
6450.00000	114.65105	-133.58537	114.65105
6500.00000	114.59404	-136.75371	114.59404
6550.00000	114.48325	-139.56744	114.48325
6600.00000	114.46329	-142.62253	114.46329
6650.00000	114.42583	-145.35188	114.42583
6700.00000	114.38164	-148.46705	114.38164
6750.00000	114.36744	-151.33359	114.36744
6800.00000	114.31394	-154.33715	114.31394
6850.00000	114.30301	-157.49303	114.30301
6900.00000	114.28836	-160.51228	114.28836
6950.00000	114.26685	-163.87138	114.26685
7000.00000	114.24281	-167.15609	114.24281
7050.00000	114.22049	-170.64554	114.22049
7100.00000	114.21051	-174.14691	114.21051
7150.00000	114.18330	-177.73324	114.18330
7200.00000	114.17101	-181.60516	114.17101
7250.00000	114.08651	-185.47808	114.08651
7300.00000	114.05503	-189.68540	114.05503
7350.00000	113.95684	-193.69020	113.95684
7400.00000	113.84781	-198.11067	113.84781
7450.00000	113.71223	-202.44935	113.71223
7500.00000	113.55152	-206.95780	113.55152
7550.00000	113.38634	-211.16008	113.38634
7600.00000	113.14716	-215.64403	113.14716
7650.00000	112.89194	-220.03114	112.89194
7700.00000	112.66612	-224.24484	112.66612
7750.00000	112.31323	-228.60820	112.31323
7800.00000	111.98810	-232.75008	111.98810
7850.00000	111.63753	-236.86406	111.63753
7900.00000	111.25008	-240.44577	111.25008
7950.00000	110.84407	-244.18104	110.84407
8000.00000	110.44547	-247.71900	110.44547
8050.00000	110.02210	-251.27085	110.02210
8100.00000	109.60618	-253.80249	109.60618
8150.00000	109.11000	-256.56359	109.11000
8200.00000	108.64757	-259.12351	108.64757
8250.00000	108.15413	-261.78521	108.15413
8300.00000	107.67105	-264.30831	107.67105
8350.00000	107.18580	-266.26181	107.18580
8400.00000	106.71400	-268.67811	106.71400
8450.00000	106.24616	-271.04717	106.24616
8500.00000	105.70356	-273.55684	105.70356
8550.00000	105.35976	-275.17921	105.35976
8600.00000	104.97290	-277.32737	104.97290
8650.00000	104.61959	-279.30472	104.61959
8700.00000	104.37098	-281.10919	104.37098
8750.00000	103.96791	-281.14027	103.96791
8800.00000	103.71421	-282.28876	103.71421
8850.00000	103.29945	-282.71240	103.29945
8900.00000	103.04038	-283.07953	103.04038
8950.00000	102.62797	-283.77457	102.62797
9000.00000	102.17115	-284.42581	102.17115
9050.00000	101.73979	-285.44011	101.73979
9100.00000	101.34241	-287.12393	101.34241
9150.00000	100.94372	-288.78610	100.94372
9200.00000	100.65237	-290.78297	100.65237
9250.00000	100.32879	-292.50711	100.32879
9300.00000	100.33114	-294.24985	100.33114
9350.00000	100.21143	-295.87456	100.21143
9400.00000	100.08687	-296.44967	100.08687
9450.00000	100.09483	-296.49664	100.09483
9500.00000	100.02081	-295.13788	100.02081
9550.00000	100.01193	-294.51582	100.01193
9600.00000	100.03533	-294.23656	100.03533
9650.00000	99.76318	-294.35692	99.76318
9700.00000	99.48876	-294.78457	99.48876
9750.00000	99.33370	-296.30702	99.33370
9800.00000	99.06912	-297.70786	99.06912
9850.00000	98.93036	-299.26517	98.93036
9900.00000	98.85028	-301.65136	98.85028
9950.00000	98.89709	-303.24461	98.89709
10000.00000	99.01075	-303.99331	99.01075
10050.00000	99.08137	-304.98268	99.08137
10100.00000	99.06821	-305.63500	99.06821
10150.00000	98.91719	-306.24151	98.91719
10200.00000	98.89359	-308.00545	98.89359
10250.00000	98.56841	-309.49303	98.56841
10300.00000	98.49668	-310.78664	98.49668
10350.00000	98.34603	-313.59119	98.34603
10400.00000	98.08477	-315.77161	98.08477
10450.00000	98.14569	-319.10764	98.14569
10500.00000	98.15314	-321.59107	98.15314
10550.00000	98.22224	-324.08859	98.22224
10600.00000	98.20404	-326.11229	98.20404
10650.00000	98.13653	-327.37075	98.13653
10700.00000	98.07828	-329.66795	98.07828
10750.00000	98.00146	-331.36635	98.00146
10800.00000	97.73270	-333.27252	97.73270
10850.00000	97.50801	-336.40461	97.50801
10900.00000	97.29516	-338.95583	97.29516
10950.00000	97.08488	-341.20737	97.08488
11000.00000	96.90037	-343.77681	96.90037
11050.00000	96.61256	-346.46615	96.61256
11100.00000	96.39791	-348.66399	96.39791
11150.00000	96.14623	-350.59829	96.14623
11200.00000	95.84949	-351.70127	95.84949
11250.00000	95.38707	-353.89492	95.38707
11300.00000	95.05864	-355.57407	95.05864
11350.00000	94.63045	-356.89233	94.63045
11400.00000	94.10766	-358.28426	94.10766
11450.00000	93.69848	-360.74886	93.69848
11500.00000	93.49881	-361.06141	93.49881
11550.00000	93.11467	-362.05400	93.11467
11600.00000	92.78556	-363.84545	92.78556
11650.00000	92.52508	-363.10399	92.52508
11700.00000	92.21690	-364.10399	92.21690
11750.00000	91.95115	-364.30947	91.95115
11800.00000	91.68314	-364.22075	91.68314
11850.00000	91.58175	-363.46249	91.58175
11900.00000	90.97796	-364.28119	90.97796
11950.00000	90.75631	-364.06287	90.75631
12000.00000	90.46096	-361.86274	90.46096
12050.00000	90.00375	-361.35493	90.00375
12100.00000	89.96640	-362.76790	89.96640
12150.00000	89.71928	-361.72778	89.71928
12200.00000	89.59518	-363.30541	89.59518
12250.00000	89.38187	-361.88085	89.38187
12300.00000	90.67114	-360.96107	90.67114
12350.00000	89.63641	-359.78973	89.63641
12400.00000	89.39416	-357.98800	89.39416
12450.00000	89.31688	-357.06418	89.31688
12500.00000	89.26564	-355.54665	89.26564
12550.00000	89.04870	-356.04280	89.04870
12600.00000	88.89259	-356.33453	88.89259
12650.00000	89.20240	-358.76144	89.20240
12700.00000	88.99673	-358.07211	88.99673
12750.00000	89.32821	-358.58149	89.32821
12800.00000	89.12702	-358.28670	89.12702
12850.00000	88.94934	-355.58756	88.94934
12900.00000	89.07720	-357.42612	89.07720
12950.00000	89.18960	-356.22339	89.18960
13000.00000	88.94283	-357.32257	88.94283
13050.00000	89.08498	-356.40756	89.08498
13100.00000	88.92865	-357.47943	88.92865
13150.00000	89.19038	-358.15581	89.19038
13200.00000	89.02351	-356.12891	89.02351
13250.00000	89.26240	-355.94548	89.26240
13300.00000	89.29206	-353.20877	89.29206
13350.00000	89.25359	-354.39373	89.25359
13400.00000	89.31697	-352.82201	89.31697
13450.00000	89.30553	-352.83951	89.30553
13500.00000	89.49150	-353.14684	89.49150
13550.00000	89.42772	-352.96377	89.42772
13600.00000	89.82868	-351.32364	89.82868
13650.00000	90.10560	-350.29114	90.10560
13700.00000	89.98244	-350.29196	89.98244
13750.00000	89.84794	-350.07053	89.84794
13800.00000	90.04108	-351.89054	90.04108
13850.00000	90.15996	-352.89238	90.15996
13900.00000	90.29816	-353.07620	90.29816
13950.00000	90.57635	-352.04985	90.57635
14000.00000	91.03572	-349.91575	91.03572
14050.00000	91.31677	-350.95217	91.31677
14100.00000	91.26333	-348.35063	91.26333
14150.00000	91.69349	-349.00744	91.69349
14200.00000	92.03298	-350.19377	92.03298
14250.00000	92.65072	-348.70546	92.65072
14300.00000	92.87453	-348.99065	92.87453
14350.00000	93.02880	-347.72497	93.02880
14400.00000	93.17896	-348.35450	93.17896
14450.00000	93.55347	-347.26036	93.55347
14500.00000	93.74269	-348.07007	93.74269
14550.00000	94.22762	-348.35958	94.22762
14600.00000	94.48582	-350.11540	94.48582
14650.00000	95.07772	-349.38153	95.07772
14700.00000	95.49770	-354.54386	95.49770
14750.00000	96.00108	-354.74972	96.00108
14800.00000	96.32857	-354.61910	96.32857
14850.00000	96.78399	-355.03441	96.78399
14900.00000	97.22489	-357.18918	97.22489
14950.00000	97.70943	-358.78763	97.70943
15000.00000	98.14033	-360.98466	98.14033
15050.00000	98.46226	-361.24609	98.46226
15100.00000	98.96125	-362.19551	98.96125
15150.00000	99.44905	-364.64663	99.44905
15200.00000	99.72506	-365.08298	99.72506
15250.00000	99.96317	-368.40018	99.96317
15300.00000	100.58486	-371.24404	100.58486
15350.00000	100.97072	-374.92109	100.97072
15400.00000	101.28502	-376.28446	101.28502
15450.00000	101.71899	-379.13422	101.71899
15500.00000	102.14648	-381.85635	102.14648
15550.00000	102.51909	-385.18083	102.51909
15600.00000	102.76418	-388.75799	102.76418
15650.00000	103.21073	-390.05403	103.21073
15700.00000	103.34959	-394.89255	103.34959
15750.00000	103.76412	-397.75474	103.76412
15800.00000	104.07850	-400.19803	104.07850
15850.00000	104.27294	-403.20768	104.27294
15900.00000	104.39052	-407.07103	104.39052
15950.00000	104.66974	-410.28991	104.66974
16000.00000	104.85782	-413.73949	104.85782
16050.00000	105.15289	-417.00502	105.15289
16100.00000	105.17760	-420.46982	105.17760
16150.00000	105.29631	-423.57420	105.29631
16200.00000	105.42503	-427.47699	105.42503
16250.00000	105.55297	-430.20181	105.55297
16300.00000	105.84249	-433.62784	105.84249
16350.00000	105.90089	-436.54089	105.90089
16400.00000	106.02643	-439.50956	106.02643
16450.00000	106.10236	-442.28755	106.10236
16500.00000	106.14609	-445.09128	106.14609
16550.00000	106.34669	-448.84270	106.34669
16600.00000	106.46119	-451.35814	106.46119
16650.00000	106.51062	-454.14081	106.51062
16700.00000	106.62953	-456.76753	106.62953
16750.00000	106.64278	-459.98190	106.64278
16800.00000	106.76291	-463.07940	106.76291
16850.00000	106.94124	-465.63619	106.94124
16900.00000	107.07043	-468.67858	107.07043
16950.00000	107.18250	-471.63896	107.18250
17000.00000	107.15507	-474.52721	107.15507
17050.00000	107.31394	-476.61030	107.31394
17100.00000	107.34265	-478.73307	107.34265
17150.00000	107.57016	-482.19988	107.57016
17200.00000	107.68316	-485.08128	107.68316
17250.00000	107.70723	-488.57517	107.70723
17300.00000	107.90938	-491.35999	107.90938
17350.00000	107.88814	-494.00667	107.88814
17400.00000	108.05157	-497.11748	108.05157
17450.00000	108.08792	-500.49285	108.08792
17500.00000	108.22958	-503.73885	108.22958
17550.00000	108.31135	-506.74728	108.31135
17600.00000	108.48107	-509.46221	108.48107
17650.00000	108.52043	-513.51182	108.52043
17700.00000	108.58062	-516.93243	108.58062
17750.00000	108.76492	-519.65602	108.76492
17800.00000	108.69340	-523.56587	108.69340
17850.00000	108.77159	-526.50317	108.77159
17900.00000	108.78354	-530.01079	108.78354
17950.00000	108.89193	-533.72766	108.89193
18000.00000	108.89331	-537.63124	108.89331
18050.00000	109.02141	-540.56141	109.02141
18100.00000	108.94763	-544.64020	108.94763
18150.00000	108.94127	-547.53676	108.94127
18200.00000	108.84314	-551.58555	108.84314
18250.00000	108.86507	-554.26814	108.86507
18300.00000	108.86296	-557.68552	108.86296
18350.00000	108.81986	-561.03256	108.81986
18400.00000	108.71647	-564.64105	108.71647
18450.00000	108.60686	-569.05753	108.60686
18500.00000	108.54938	-572.19407	108.54938
18550.00000	108.45606	-574.93641	108.45606
18600.00000	108.45041	-578.54003	108.45041
18650.00000	108.20514	-581.36533	108.20514
18700.00000	108.10239	-584.85587	108.10239
18750.00000	108.03220	-587.79951	108.03220
18800.00000	108.04479	-590.15696	108.04479
18850.00000	107.80034	-593.32074	107.80034
18900.00000	107.68928	-596.08070	107.68928
18950.00000	107.60061	-599.27347	107.60061
19000.00000	107.34143	-601.57216	107.34143
19050.00000	107.39207	-604.56944	107.39207
19100.00000	107.23504	-606.96033	107.23504
19150.00000	107.25795	-609.42015	107.25795
19200.00000	107.15105	-611.62546	107.15105
19250.00000	107.01459	-615.40246	107.01459
19300.00000	106.88349	-617.29421	106.88349
19350.00000	106.80184	-619.72720	106.80184
19400.00000	106.68231	-622.31731	106.68231
19450.00000	106.70541	-624.26232	106.70541
19500.00000	106.53067	-627.68081	106.53067
19550.00000	106.45075	-630.13572	106.45075
19600.00000	106.44716	-633.09209	106.44716
19650.00000	106.30836	-635.24874	106.30836
19700.00000	106.13152	-638.02715	106.13152
19750.00000	106.05083	-639.94005	106.05083
19800.00000	106.03181	-643.35234	106.03181
19850.00000	105.96302	-645.52314	105.96302
19900.00000	105.83181	-648.95712	105.83181
19950.00000	105.71668	-651.34871	105.71668
20000.00000	105.62233	-653.84173	105.62233
20050.00000	105.53761	-656.46525	105.53761
20100.00000	105.33417	-659.08375	105.33417
20150.00000	105.27288	-660.88679	105.27288
20200.00000	105.12200	-664.06917	105.12200
20250.00000	104.95334	-666.44552	104.95334
20300.00000	104.74326	-668.94791	104.74326
20350.00000	104.66504	-671.56464	104.66504
20400.00000	104.45736	-673.17088	104.45736
20450.00000	104.21467	-675.63554	104.21467
20500.00000	104.10899	-678.09359	104.10899
20550.00000	103.71352	-679.38107	103.71352
20600.00000	103.62575	-681.19548	103.62575
20650.00000	103.44121	-683.15809	103.44121
20700.00000	103.19748	-684.70713	103.19748
20750.00000	103.07707	-686.26869	103.07707
20800.00000	102.84944	-687.39829	102.84944
20850.00000	102.72517	-688.83095	102.72517
20900.00000	102.51585	-689.90868	102.51585
20950.00000	102.36386	-690.55008	102.36386
21000.00000	102.24592	-691.25806	102.24592
21050.00000	102.27813	-691.69042	102.27813
21100.00000	102.18528	-692.22131	102.18528
21150.00000	102.22141	-693.17516	102.22141
21200.00000	102.26196	-693.59994	102.26196
21250.00000	102.28943	-695.69649	102.28943
21300.00000	102.38949	-696.22537	102.38949
21350.00000	102.42347	-697.23430	102.42347
21400.00000	102.47573	-698.98071	102.47573
21450.00000	102.57407	-700.60955	102.57407
21500.00000	102.62920	-702.65621	102.62920
21550.00000	102.58494	-704.07231	102.58494
21600.00000	102.70532	-706.07887	102.70532
21650.00000	102.71092	-708.21316	102.71092
21700.00000	102.72215	-709.82282	102.72215
21750.00000	102.73978	-711.91570	102.73978
21800.00000	102.75084	-714.00019	102.75084
21850.00000	102.67864	-715.62969	102.67864
21900.00000	102.66839	-717.51101	102.66839
21950.00000	102.65674	-719.16812	102.65674
22000.00000	102.66546	-720.82635	102.66546
22050.00000	102.61848	-722.34067	102.61848
22100.00000	102.60070	-724.30522	102.60070
22150.00000	102.56643	-725.79725	102.56643
22200.00000	102.62122	-727.70778	102.62122
22250.00000	102.60668	-728.69901	102.60668
22300.00000	102.44695	-730.47111	102.44695
22350.00000	102.60953	-732.56831	102.60953
22400.00000	102.62251	-734.19747	102.62251
22450.00000	102.59613	-735.88345	102.59613
22500.00000	102.54559	-736.56352	102.54559
22550.00000	102.54629	-738.66262	102.54629
22600.00000	102.57368	-741.24206	102.57368
22650.00000	102.60157	-742.57454	102.60157
22700.00000	102.57042	-744.02988	102.57042
22750.00000	102.56858	-743.95247	102.56858
