---ACOUSTIC CALIBRATION---
Filename: C:\Data\AZH DATA\AZH81\RightPrimary.calib
Date: 8/27/2019 4:24:02 PM
Format: 4
Probe Tube Correction File: C:\Data\Probe Tube Calibrations\50_ProbeTube.calib
Experiment VIs: 850
EPL_CFTS.exe V12.0.1 (2012)
DAQmx V9.6

Attenuation (dB): 40.000000
Min Freq (Hz): 50.000000
Max Freq (Hz): 49950.000000
Freq Step (Hz): 50.000000
Sample Rate (Hz): 100000.000000
[Smoothing]
Method=None
MA.Iterations=0
MA.Length=0
Loess.Length=0
Loess.Type=Linear
Loess.Robust=FALSE


Freq(Hz)	Mag(dB)	Phase(deg)	Unsmoothed(dB)

50.00000	108.56148	575.02668	108.56148
100.00000	65.69528	664.50757	65.69528
150.00000	81.92925	512.78519	81.92925
200.00000	81.74410	460.08891	81.74410
250.00000	91.59347	452.25354	91.59347
300.00000	87.96223	422.22037	87.96223
350.00000	77.11433	396.54636	77.11433
400.00000	87.29592	405.89265	87.29592
450.00000	85.39542	364.91887	85.39542
500.00000	87.51925	375.14640	87.51925
550.00000	92.05763	370.42821	92.05763
600.00000	96.40827	362.12170	96.40827
650.00000	97.53510	351.30410	97.53510
700.00000	99.45073	334.98552	99.45073
750.00000	101.38166	317.06218	101.38166
800.00000	102.49185	292.49374	102.49185
850.00000	101.84407	278.12406	101.84407
900.00000	100.34582	260.88207	100.34582
950.00000	98.50951	257.90751	98.50951
1000.00000	96.99531	256.82423	96.99531
1050.00000	95.08845	270.36921	95.08845
1100.00000	96.10580	293.06740	96.10580
1150.00000	98.83843	299.12999	98.83843
1200.00000	101.74155	298.79626	101.74155
1250.00000	103.58086	291.49659	103.58086
1300.00000	105.27710	286.20064	105.27710
1350.00000	106.54435	276.47158	106.54435
1400.00000	107.44180	268.22466	107.44180
1450.00000	108.31863	261.48960	108.31863
1500.00000	109.37253	255.53194	109.37253
1550.00000	110.24332	246.93621	110.24332
1600.00000	111.75103	237.26324	111.75103
1650.00000	112.77306	220.97749	112.77306
1700.00000	111.65173	210.98909	111.65173
1750.00000	111.47513	204.66702	111.47513
1800.00000	111.29634	198.59075	111.29634
1850.00000	111.30682	197.37721	111.30682
1900.00000	112.40106	193.36260	112.40106
1950.00000	113.14652	181.08765	113.14652
2000.00000	112.27001	168.03262	112.27001
2050.00000	110.75792	170.84668	110.75792
2100.00000	112.47829	172.96939	112.47829
2150.00000	113.21880	161.89913	113.21880
2200.00000	113.17919	151.41938	113.17919
2250.00000	112.60667	144.52784	112.60667
2300.00000	112.71988	138.73994	112.71988
2350.00000	112.47055	132.12620	112.47055
2400.00000	112.21442	126.50869	112.21442
2450.00000	111.94556	120.08960	111.94556
2500.00000	111.54743	114.98351	111.54743
2550.00000	111.16343	109.55801	111.16343
2600.00000	110.62101	104.97337	110.62101
2650.00000	110.18604	101.32888	110.18604
2700.00000	109.65308	97.35634	109.65308
2750.00000	109.15277	94.11909	109.15277
2800.00000	108.60407	91.60842	108.60407
2850.00000	108.01811	88.82267	108.01811
2900.00000	107.43203	86.80912	107.43203
2950.00000	106.83549	85.47286	106.83549
3000.00000	106.23975	84.24956	106.23975
3050.00000	105.61211	82.68307	105.61211
3100.00000	105.00803	82.69426	105.00803
3150.00000	104.00900	81.03474	104.00900
3200.00000	102.71759	84.78696	102.71759
3250.00000	101.56994	90.74604	101.56994
3300.00000	100.70146	100.46248	100.70146
3350.00000	100.04440	114.82460	100.04440
3400.00000	100.95636	135.29795	100.95636
3450.00000	103.35182	147.74536	103.35182
3500.00000	106.11179	152.38070	106.11179
3550.00000	108.36736	150.57235	108.36736
3600.00000	110.30362	147.94475	110.30362
3650.00000	111.91895	142.48180	111.91895
3700.00000	113.23984	137.65975	113.23984
3750.00000	114.56104	132.67416	114.56104
3800.00000	115.79220	126.41320	115.79220
3850.00000	116.85013	120.22794	116.85013
3900.00000	117.86904	113.86645	117.86904
3950.00000	118.85933	106.87883	118.85933
4000.00000	119.74977	99.61269	119.74977
4050.00000	120.57524	92.33974	120.57524
4100.00000	121.44711	85.06119	121.44711
4150.00000	122.50465	76.80247	122.50465
4200.00000	123.30154	66.87905	123.30154
4250.00000	124.05669	55.82333	124.05669
4300.00000	124.58763	43.58197	124.58763
4350.00000	124.78312	30.72845	124.78312
4400.00000	124.69752	18.59046	124.69752
4450.00000	124.39299	 7.30288	124.39299
4500.00000	123.98022	-2.96152	123.98022
4550.00000	123.51196	-12.51021	123.51196
4600.00000	122.96621	-21.19361	122.96621
4650.00000	122.47895	-29.32195	122.47895
4700.00000	121.92843	-37.73821	121.92843
4750.00000	121.29784	-46.27990	121.29784
4800.00000	120.46866	-54.88963	120.46866
4850.00000	119.38055	-62.72720	119.38055
4900.00000	118.03160	-68.82335	118.03160
4950.00000	116.61984	-72.34950	116.61984
5000.00000	115.26766	-73.01127	115.26766
5050.00000	114.12309	-72.82702	114.12309
5100.00000	112.91761	-69.79631	112.91761
5150.00000	112.67980	-63.60620	112.67980
5200.00000	111.89434	-60.85522	111.89434
5250.00000	112.44946	-45.80580	112.44946
5300.00000	115.38703	-47.87774	115.38703
5350.00000	116.20087	-62.12483	116.20087
5400.00000	115.76067	-71.80326	115.76067
5450.00000	115.19288	-77.06931	115.19288
5500.00000	114.73609	-80.81661	114.73609
5550.00000	114.40040	-83.57864	114.40040
5600.00000	114.12423	-86.20722	114.12423
5650.00000	113.89658	-88.64494	113.89658
5700.00000	113.70176	-91.31928	113.70176
5750.00000	113.54600	-93.70058	113.54600
5800.00000	113.36534	-96.25904	113.36534
5850.00000	113.21156	-98.84725	113.21156
5900.00000	113.09216	-101.24021	113.09216
5950.00000	112.98213	-103.76728	112.98213
6000.00000	112.86247	-106.09937	112.86247
6050.00000	112.72663	-108.51308	112.72663
6100.00000	112.64613	-110.82846	112.64613
6150.00000	112.57855	-113.25112	112.57855
6200.00000	112.48325	-115.75377	112.48325
6250.00000	112.45229	-118.41366	112.45229
6300.00000	112.39904	-121.10661	112.39904
6350.00000	112.31274	-123.84100	112.31274
6400.00000	112.26826	-126.75204	112.26826
6450.00000	112.18979	-129.58617	112.18979
6500.00000	112.10207	-132.56564	112.10207
6550.00000	111.99560	-135.35477	111.99560
6600.00000	111.94251	-138.04845	111.94251
6650.00000	111.85608	-140.85304	111.85608
6700.00000	111.79829	-143.76031	111.79829
6750.00000	111.72992	-146.56646	111.72992
6800.00000	111.67922	-149.33863	111.67922
6850.00000	111.60045	-152.34030	111.60045
6900.00000	111.55232	-155.21131	111.55232
6950.00000	111.48976	-158.10824	111.48976
7000.00000	111.42609	-161.14080	111.42609
7050.00000	111.36035	-164.31181	111.36035
7100.00000	111.31982	-167.53430	111.31982
7150.00000	111.26876	-170.64608	111.26876
7200.00000	111.18735	-174.14103	111.18735
7250.00000	111.08056	-177.64944	111.08056
7300.00000	111.01352	-181.16443	111.01352
7350.00000	110.86451	-184.68873	110.86451
7400.00000	110.76012	-188.35612	110.76012
7450.00000	110.58638	-192.13012	110.58638
7500.00000	110.41976	-195.64239	110.41976
7550.00000	110.25140	-199.48150	110.25140
7600.00000	110.00103	-203.08258	110.00103
7650.00000	109.79141	-206.77284	109.79141
7700.00000	109.57418	-210.18039	109.57418
7750.00000	109.28236	-213.59943	109.28236
7800.00000	108.98364	-217.14734	108.98364
7850.00000	108.66904	-220.23988	108.66904
7900.00000	108.39465	-223.35330	108.39465
7950.00000	108.06002	-226.22463	108.06002
8000.00000	107.75375	-228.98584	107.75375
8050.00000	107.40416	-232.01645	107.40416
8100.00000	107.11861	-234.10519	107.11861
8150.00000	106.69682	-236.45253	106.69682
8200.00000	106.39009	-238.28846	106.39009
8250.00000	106.02767	-240.49258	106.02767
8300.00000	105.66758	-242.58673	105.66758
8350.00000	105.32422	-244.31418	105.32422
8400.00000	104.93764	-246.52993	104.93764
8450.00000	104.55447	-248.16383	104.55447
8500.00000	104.19648	-250.38063	104.19648
8550.00000	103.91655	-251.92093	103.91655
8600.00000	103.66239	-254.16646	103.66239
8650.00000	103.35766	-255.80449	103.35766
8700.00000	103.17343	-257.56992	103.17343
8750.00000	102.93511	-258.24556	102.93511
8800.00000	102.73858	-259.36726	102.73858
8850.00000	102.55344	-260.37056	102.55344
8900.00000	102.33285	-260.91365	102.33285
8950.00000	102.13609	-261.67851	102.13609
9000.00000	101.82048	-262.66553	101.82048
9050.00000	101.58343	-263.96036	101.58343
9100.00000	101.33597	-265.38815	101.33597
9150.00000	101.04089	-267.13394	101.04089
9200.00000	100.90096	-268.63888	100.90096
9250.00000	100.70514	-270.81441	100.70514
9300.00000	100.60493	-272.31946	100.60493
9350.00000	100.65183	-274.14888	100.65183
9400.00000	100.52369	-275.20641	100.52369
9450.00000	100.59037	-275.73763	100.59037
9500.00000	100.60458	-275.70302	100.60458
9550.00000	100.66524	-275.27737	100.66524
9600.00000	100.89475	-276.14947	100.89475
9650.00000	100.77802	-277.54818	100.77802
9700.00000	100.70516	-277.78822	100.70516
9750.00000	100.71048	-280.30108	100.71048
9800.00000	100.54474	-281.73910	100.54474
9850.00000	100.56110	-283.53687	100.56110
9900.00000	100.41484	-286.18852	100.41484
9950.00000	100.47553	-287.88984	100.47553
10000.00000	100.59109	-290.76639	100.59109
10050.00000	100.62647	-292.78939	100.62647
10100.00000	100.68221	-294.36314	100.68221
10150.00000	100.59234	-297.07126	100.59234
10200.00000	100.54789	-299.12995	100.54789
10250.00000	100.44402	-301.74746	100.44402
10300.00000	100.38857	-304.68770	100.38857
10350.00000	100.23814	-307.37394	100.23814
10400.00000	100.08508	-310.81844	100.08508
10450.00000	100.03007	-314.69184	100.03007
10500.00000	100.01976	-317.96037	100.01976
10550.00000	99.97227	-321.31585	99.97227
10600.00000	99.86471	-324.22385	99.86471
10650.00000	99.74982	-326.52308	99.74982
10700.00000	99.60290	-330.15588	99.60290
10750.00000	99.42144	-332.75887	99.42144
10800.00000	99.14652	-335.37890	99.14652
10850.00000	98.82471	-339.39237	98.82471
10900.00000	98.54870	-342.17488	98.54870
10950.00000	98.24943	-345.06102	98.24943
11000.00000	97.93550	-348.12155	97.93550
11050.00000	97.47656	-350.69309	97.47656
11100.00000	97.15764	-353.57734	97.15764
11150.00000	96.66581	-355.70538	96.66581
11200.00000	96.30070	-357.23526	96.30070
11250.00000	95.78973	-359.65596	95.78973
11300.00000	95.20174	-361.49175	95.20174
11350.00000	94.73947	-362.95995	94.73947
11400.00000	94.16272	-364.69160	94.16272
11450.00000	93.68017	-366.40084	93.68017
11500.00000	93.35603	-366.76154	93.35603
11550.00000	92.86726	-367.16979	92.86726
11600.00000	92.50067	-368.25648	92.50067
11650.00000	92.06138	-367.36833	92.06138
11700.00000	91.77165	-367.53641	91.77165
11750.00000	91.38284	-367.27647	91.38284
11800.00000	91.02643	-367.10191	91.02643
11850.00000	90.79200	-366.37912	90.79200
11900.00000	90.26135	-366.45697	90.26135
11950.00000	89.99683	-365.16624	89.99683
12000.00000	89.70277	-364.59009	89.70277
12050.00000	89.31457	-362.79740	89.31457
12100.00000	89.20264	-363.27944	89.20264
12150.00000	88.95256	-363.20487	88.95256
12200.00000	88.79113	-362.64910	88.79113
12250.00000	88.74866	-361.28422	88.74866
12300.00000	89.77531	-360.73104	89.77531
12350.00000	88.60445	-359.11993	88.60445
12400.00000	88.58790	-357.57077	88.58790
12450.00000	88.57291	-356.13421	88.57291
12500.00000	88.45570	-355.42625	88.45570
12550.00000	88.34378	-354.46229	88.34378
12600.00000	88.25785	-355.26946	88.25785
12650.00000	88.35237	-354.97125	88.35237
12700.00000	88.41477	-355.00314	88.41477
12750.00000	88.44244	-355.20253	88.44244
12800.00000	88.49941	-353.98397	88.49941
12850.00000	88.36645	-353.62495	88.36645
12900.00000	88.44246	-353.37758	88.44246
12950.00000	88.36520	-352.45630	88.36520
13000.00000	88.39122	-352.87931	88.39122
13050.00000	88.39167	-352.49656	88.39167
13100.00000	88.39276	-352.27744	88.39276
13150.00000	88.60503	-352.89830	88.60503
13200.00000	88.71590	-352.37055	88.71590
13250.00000	88.86327	-351.76976	88.86327
13300.00000	88.84768	-348.63157	88.84768
13350.00000	88.91757	-349.45609	88.91757
13400.00000	89.20833	-349.13905	89.20833
13450.00000	89.01681	-348.20196	89.01681
13500.00000	89.29081	-347.29242	89.29081
13550.00000	89.29300	-347.90224	89.29300
13600.00000	89.54499	-347.04459	89.54499
13650.00000	89.62341	-346.63758	89.62341
13700.00000	89.72921	-345.97214	89.72921
13750.00000	89.89585	-345.62527	89.89585
13800.00000	90.00087	-347.34835	90.00087
13850.00000	90.08906	-347.94956	90.08906
13900.00000	90.30106	-347.36132	90.30106
13950.00000	90.62817	-347.32595	90.62817
14000.00000	91.14677	-346.10129	91.14677
14050.00000	91.42250	-345.41157	91.42250
14100.00000	91.54180	-345.23409	91.54180
14150.00000	91.85997	-345.53736	91.85997
14200.00000	92.26746	-345.54721	92.26746
14250.00000	92.92805	-343.65267	92.92805
14300.00000	93.16671	-344.95278	93.16671
14350.00000	93.49869	-343.89473	93.49869
14400.00000	93.52508	-344.78419	93.52508
14450.00000	93.96574	-343.92686	93.96574
14500.00000	94.28242	-344.96742	94.28242
14550.00000	94.75396	-345.53162	94.75396
14600.00000	95.05047	-347.82065	95.05047
14650.00000	95.70044	-347.23485	95.70044
14700.00000	96.16309	-351.92127	96.16309
14750.00000	96.63621	-352.78627	96.63621
14800.00000	96.92602	-353.30350	96.92602
14850.00000	97.46002	-354.32545	97.46002
14900.00000	97.95997	-356.31825	97.95997
14950.00000	98.43668	-358.78640	98.43668
15000.00000	98.89770	-361.13388	98.89770
15050.00000	99.19104	-361.56372	99.19104
15100.00000	99.64416	-363.13384	99.64416
15150.00000	100.18003	-366.36479	100.18003
15200.00000	100.43785	-367.28729	100.43785
15250.00000	100.73040	-370.75877	100.73040
15300.00000	101.33131	-373.92598	101.33131
15350.00000	101.58561	-377.76526	101.58561
15400.00000	101.88802	-379.48701	101.88802
15450.00000	102.21215	-382.99281	102.21215
15500.00000	102.59479	-386.16195	102.59479
15550.00000	102.90450	-389.75491	102.90450
15600.00000	103.15476	-392.89920	103.15476
15650.00000	103.53994	-394.71759	103.53994
15700.00000	103.59009	-399.47746	103.59009
15750.00000	103.89628	-402.35802	103.89628
15800.00000	104.15180	-404.76644	104.15180
15850.00000	104.34022	-407.90252	104.34022
15900.00000	104.42280	-411.63070	104.42280
15950.00000	104.60203	-414.67028	104.60203
16000.00000	104.75318	-417.40423	104.75318
16050.00000	105.02337	-420.56303	105.02337
16100.00000	104.99013	-423.84575	104.99013
16150.00000	105.07710	-426.64511	105.07710
16200.00000	105.24779	-430.01684	105.24779
16250.00000	105.42425	-432.72428	105.42425
16300.00000	105.67377	-435.64244	105.67377
16350.00000	105.73359	-438.27396	105.73359
16400.00000	105.89568	-440.66919	105.89568
16450.00000	106.01220	-443.44656	106.01220
16500.00000	106.11052	-446.40876	106.11052
16550.00000	106.28909	-449.62305	106.28909
16600.00000	106.46549	-452.12733	106.46549
16650.00000	106.57749	-455.08358	106.57749
16700.00000	106.72237	-457.59981	106.72237
16750.00000	106.74952	-460.65170	106.74952
16800.00000	106.93834	-463.75964	106.93834
16850.00000	107.13706	-466.55655	107.13706
16900.00000	107.28346	-469.88439	107.28346
16950.00000	107.41448	-472.79231	107.41448
17000.00000	107.40424	-475.69908	107.40424
17050.00000	107.62501	-478.12638	107.62501
17100.00000	107.63826	-480.27184	107.63826
17150.00000	107.92016	-483.86108	107.92016
17200.00000	108.01137	-486.78676	108.01137
17250.00000	108.08572	-490.27391	108.08572
17300.00000	108.29466	-493.39891	108.29466
17350.00000	108.25590	-496.24024	108.25590
17400.00000	108.45119	-499.21579	108.45119
17450.00000	108.39628	-502.91017	108.39628
17500.00000	108.63793	-505.94062	108.63793
17550.00000	108.73546	-509.17169	108.73546
17600.00000	108.91517	-512.05979	108.91517
17650.00000	108.98309	-516.12245	108.98309
17700.00000	109.04929	-519.56653	109.04929
17750.00000	109.25792	-522.51909	109.25792
17800.00000	109.19700	-526.62302	109.19700
17850.00000	109.25205	-529.45650	109.25205
17900.00000	109.29639	-533.01950	109.29639
17950.00000	109.43283	-536.91352	109.43283
18000.00000	109.44525	-541.01495	109.44525
18050.00000	109.62967	-543.89173	109.62967
18100.00000	109.49301	-548.03519	109.49301
18150.00000	109.52494	-551.04812	109.52494
18200.00000	109.45639	-555.18589	109.45639
18250.00000	109.50771	-558.06528	109.50771
18300.00000	109.51726	-561.57536	109.51726
18350.00000	109.48060	-564.81181	109.48060
18400.00000	109.41477	-568.59727	109.41477
18450.00000	109.33582	-573.24555	109.33582
18500.00000	109.30243	-576.56233	109.30243
18550.00000	109.23264	-579.27821	109.23264
18600.00000	109.23826	-583.11304	109.23826
18650.00000	109.02683	-585.87854	109.02683
18700.00000	108.97388	-589.82654	108.97388
18750.00000	108.94410	-593.12848	108.94410
18800.00000	108.95105	-595.68599	108.95105
18850.00000	108.73843	-599.02984	108.73843
18900.00000	108.64800	-601.96352	108.64800
18950.00000	108.60916	-605.53139	108.60916
19000.00000	108.37472	-608.38181	108.37472
19050.00000	108.39926	-611.37795	108.39926
19100.00000	108.25193	-614.14831	108.25193
19150.00000	108.30635	-616.82599	108.30635
19200.00000	108.21003	-619.42805	108.21003
19250.00000	108.11482	-623.55560	108.11482
19300.00000	107.98105	-625.72292	107.98105
19350.00000	107.89783	-628.62432	107.89783
19400.00000	107.78980	-631.29180	107.78980
19450.00000	107.83549	-633.66779	107.83549
19500.00000	107.68398	-637.54137	107.68398
19550.00000	107.62627	-640.38023	107.62627
19600.00000	107.62144	-643.80319	107.62144
19650.00000	107.47496	-646.16690	107.47496
19700.00000	107.32424	-649.24770	107.32424
19750.00000	107.25894	-651.73971	107.25894
19800.00000	107.26099	-655.80831	107.26099
19850.00000	107.18132	-658.60826	107.18132
19900.00000	107.02670	-662.35560	107.02670
19950.00000	106.91589	-665.27690	106.91589
20000.00000	106.84857	-668.41637	106.84857
20050.00000	106.77170	-671.77570	106.77170
20100.00000	106.54841	-675.11918	106.54841
20150.00000	106.45638	-677.60696	106.45638
20200.00000	106.26783	-681.60020	106.26783
20250.00000	106.06186	-684.65335	106.06186
20300.00000	105.82179	-687.90192	105.82179
20350.00000	105.71241	-691.44844	105.71241
20400.00000	105.41913	-694.14471	105.41913
20450.00000	105.08522	-697.51718	105.08522
20500.00000	104.87785	-700.85093	104.87785
20550.00000	104.36343	-702.96694	104.36343
20600.00000	104.14843	-705.62563	104.14843
20650.00000	103.83169	-708.41949	103.83169
20700.00000	103.40794	-710.91732	103.40794
20750.00000	103.06529	-713.18353	103.06529
20800.00000	102.60521	-714.77087	102.60521
20850.00000	102.25733	-716.43145	102.25733
20900.00000	101.80880	-717.72563	101.80880
20950.00000	101.41890	-718.27104	101.41890
21000.00000	101.05798	-718.98948	101.05798
21050.00000	100.82154	-719.17699	100.82154
21100.00000	100.47594	-719.06649	100.47594
21150.00000	100.26380	-719.13473	100.26380
21200.00000	100.09355	-718.41103	100.09355
21250.00000	99.96591	-719.22556	99.96591
21300.00000	99.96632	-718.57483	99.96632
21350.00000	99.87219	-718.58000	99.87219
21400.00000	99.80316	-719.20903	99.80316
21450.00000	99.77845	-719.42853	99.77845
21500.00000	99.78973	-719.91001	99.78973
21550.00000	99.71010	-719.81289	99.71010
21600.00000	99.88609	-720.58033	99.88609
21650.00000	99.92071	-721.71116	99.92071
21700.00000	99.92937	-722.65206	99.92937
21750.00000	99.99810	-723.90459	99.99810
21800.00000	99.97656	-725.07188	99.97656
21850.00000	99.92475	-725.99366	99.92475
21900.00000	100.00934	-726.61782	100.00934
21950.00000	100.08148	-727.47857	100.08148
22000.00000	100.21250	-728.94848	100.21250
22050.00000	100.29241	-730.03927	100.29241
22100.00000	100.24280	-731.95656	100.24280
22150.00000	100.23064	-733.18416	100.23064
22200.00000	100.30010	-734.09934	100.30010
22250.00000	100.25944	-734.70020	100.25944
22300.00000	100.28845	-735.62950	100.28845
22350.00000	100.54095	-737.52838	100.54095
22400.00000	100.68476	-739.14990	100.68476
22450.00000	100.68962	-741.33969	100.68962
22500.00000	100.62256	-741.85251	100.62256
22550.00000	100.59289	-743.67463	100.59289
22600.00000	100.62850	-745.44114	100.62850
22650.00000	100.72623	-746.46489	100.72623
22700.00000	100.90251	-747.33872	100.90251
22750.00000	100.96563	-748.16293	100.96563
