---ACOUSTIC CALIBRATION---
Filename: C:\Data\CL0809 DATA\CL0809300\RightPrimary.calib
Date: 8/9/2019 11:49:09 AM
Format: 4
Probe Tube Correction File: C:\Data\Probe Tube Calibrations\74_ProbeTube.calib
Experiment VIs: 2128
EPL_CFTS.exe V15.0.1f5 (2015)
DAQmx V15.1

Attenuation (dB): 40.000000
Min Freq (Hz): 50.000000
Max Freq (Hz): 99950.000000
Freq Step (Hz): 50.000000
Sample Rate (Hz): 200000.000000
[Smoothing]
Method=None
MA.Iterations=0
MA.Length=0
Loess.Length=0
Loess.Type=Linear
Loess.Robust=FALSE


Freq(Hz)	Mag(dB)	Phase(deg)	Unsmoothed(dB)

50.00000	96.61906	339.79386	96.61906
100.00000	68.44748	286.34268	68.44748
150.00000	63.55556	415.94605	63.55556
200.00000	54.52536	512.83144	54.52536
250.00000	46.99199	786.79723	46.99199
300.00000	61.87011	873.72493	61.87011
350.00000	57.58466	981.07405	57.58466
400.00000	49.12296	1090.25164	49.12296
450.00000	56.90479	1133.90179	56.90479
500.00000	55.83866	1196.72113	55.83866
550.00000	64.27755	1193.13384	64.27755
600.00000	65.24509	1139.56046	65.24509
650.00000	68.79185	1133.61298	68.79185
700.00000	72.21079	1132.31155	72.21079
750.00000	75.33103	1092.25451	75.33103
800.00000	76.30286	1088.60431	76.30286
850.00000	75.35938	1080.14011	75.35938
900.00000	75.42440	1086.08426	75.42440
950.00000	79.17730	1085.18919	79.17730
1000.00000	81.02571	1089.95530	81.02571
1050.00000	84.05370	1080.99134	84.05370
1100.00000	86.84618	1067.30913	86.84618
1150.00000	88.15762	1052.25215	88.15762
1200.00000	89.14616	1039.73454	89.14616
1250.00000	89.53374	1027.97245	89.53374
1300.00000	90.20464	1023.43642	90.20464
1350.00000	91.82868	1014.46336	91.82868
1400.00000	92.63396	1001.19085	92.63396
1450.00000	92.68712	989.42250	92.68712
1500.00000	92.69711	980.72131	92.69711
1550.00000	92.68494	974.18435	92.68494
1600.00000	93.25148	971.40672	93.25148
1650.00000	93.95151	967.81546	93.95151
1700.00000	97.76492	952.43686	97.76492
1750.00000	94.85514	932.46996	94.85514
1800.00000	94.43480	926.57644	94.43480
1850.00000	94.02611	919.50736	94.02611
1900.00000	93.79137	914.31799	93.79137
1950.00000	93.33048	910.39467	93.33048
2000.00000	93.13159	907.57882	93.13159
2050.00000	93.41443	905.76480	93.41443
2100.00000	93.96832	899.97408	93.96832
2150.00000	94.35361	891.40195	94.35361
2200.00000	94.09709	880.08538	94.09709
2250.00000	93.09846	874.22954	93.09846
2300.00000	92.73131	873.28349	92.73131
2350.00000	92.82702	867.99997	92.82702
2400.00000	92.87152	862.21007	92.87152
2450.00000	92.37695	854.38381	92.37695
2500.00000	91.48018	851.14962	91.48018
2550.00000	91.25275	847.46568	91.25275
2600.00000	90.73063	843.77332	90.73063
2650.00000	90.24840	841.33708	90.24840
2700.00000	89.75862	837.40847	89.75862
2750.00000	89.14297	835.52600	89.14297
2800.00000	88.70728	832.89044	88.70728
2850.00000	88.16987	831.55703	88.16987
2900.00000	87.84352	830.70605	87.84352
2950.00000	87.63567	829.84392	87.63567
3000.00000	87.35189	829.06251	87.35189
3050.00000	87.15783	826.45564	87.15783
3100.00000	86.84371	824.54447	86.84371
3150.00000	86.31699	822.20857	86.31699
3200.00000	85.85123	819.73957	85.85123
3250.00000	85.53343	819.33220	85.53343
3300.00000	84.85725	818.23998	84.85725
3350.00000	84.62649	818.54201	84.62649
3400.00000	84.15914	817.98622	84.15914
3450.00000	83.70730	817.68968	83.70730
3500.00000	83.20338	817.69046	83.20338
3550.00000	82.94469	815.92199	82.94469
3600.00000	81.75666	813.83744	81.75666
3650.00000	80.55993	817.67183	80.55993
3700.00000	79.19387	821.21805	79.19387
3750.00000	77.96092	829.88355	77.96092
3800.00000	77.41888	842.58508	77.41888
3850.00000	77.39896	851.89440	77.39896
3900.00000	77.99380	861.59969	77.99380
3950.00000	78.15453	873.10039	78.15453
4000.00000	78.84737	889.03503	78.84737
4050.00000	80.59635	897.37498	80.59635
4100.00000	82.58055	903.32482	82.58055
4150.00000	85.21167	904.51007	85.21167
4200.00000	86.99757	904.93175	86.99757
4250.00000	87.88112	896.65855	87.88112
4300.00000	88.79678	898.04818	88.79678
4350.00000	90.05187	898.76663	90.05187
4400.00000	91.65316	896.68158	91.65316
4450.00000	92.85850	890.70822	92.85850
4500.00000	93.83005	885.50763	93.83005
4550.00000	94.38490	880.89763	94.38490
4600.00000	94.92078	877.34573	94.92078
4650.00000	95.55118	876.26579	95.55118
4700.00000	96.42961	875.28078	96.42961
4750.00000	97.46379	873.46191	97.46379
4800.00000	98.57420	870.94003	98.57420
4850.00000	99.71545	867.46767	99.71545
4900.00000	100.89288	862.86909	100.89288
4950.00000	102.10129	858.04823	102.10129
5000.00000	103.35124	852.37394	103.35124
5050.00000	104.71803	845.94345	104.71803
5100.00000	106.27869	838.23494	106.27869
5150.00000	108.16300	828.03954	108.16300
5200.00000	110.54524	811.71021	110.54524
5250.00000	112.79095	779.29162	112.79095
5300.00000	110.78708	732.17752	110.78708
5350.00000	104.90836	709.66253	104.90836
5400.00000	99.68799	713.45024	99.68799
5450.00000	97.18690	726.07816	97.18690
5500.00000	95.30207	732.48242	95.30207
5550.00000	92.98573	747.85233	92.98573
5600.00000	93.12069	772.00286	93.12069
5650.00000	95.24241	785.07213	95.24241
5700.00000	97.32108	786.69982	97.32108
5750.00000	98.78839	783.11762	98.78839
5800.00000	99.54096	778.40334	99.54096
5850.00000	99.84199	774.61865	99.84199
5900.00000	100.01593	772.70862	100.01593
5950.00000	100.30566	772.42548	100.30566
6000.00000	100.77425	772.39698	100.77425
6050.00000	101.37070	772.09611	101.37070
6100.00000	102.05490	771.37256	102.05490
6150.00000	102.77629	770.07093	102.77629
6200.00000	103.57233	768.51743	103.57233
6250.00000	104.43440	766.41480	104.43440
6300.00000	105.37464	763.62350	105.37464
6350.00000	106.37098	760.14394	106.37098
6400.00000	107.41458	755.61996	107.41458
6450.00000	108.45518	749.73875	108.45518
6500.00000	109.40849	742.71139	109.40849
6550.00000	110.29116	734.76651	110.29116
6600.00000	111.04892	725.96944	111.04892
6650.00000	111.68184	716.45326	111.68184
6700.00000	112.17334	706.05633	112.17334
6750.00000	112.43844	695.11228	112.43844
6800.00000	112.45762	683.99392	112.45762
6850.00000	112.21179	673.42541	112.21179
6900.00000	111.78914	663.78871	111.78914
6950.00000	111.24240	655.37235	111.24240
7000.00000	110.64599	648.12158	110.64599
7050.00000	110.05992	641.90657	110.05992
7100.00000	109.50967	636.57780	109.50967
7150.00000	109.03610	631.58746	109.03610
7200.00000	108.58331	626.77290	108.58331
7250.00000	108.14719	622.13472	108.14719
7300.00000	107.72566	617.74243	107.72566
7350.00000	107.32372	613.36110	107.32372
7400.00000	106.91019	609.14861	106.91019
7450.00000	106.47394	605.18216	106.47394
7500.00000	106.06135	601.26923	106.06135
7550.00000	105.62420	597.39336	105.62420
7600.00000	105.17464	593.76768	105.17464
7650.00000	104.71706	590.48976	104.71706
7700.00000	104.25538	587.39503	104.25538
7750.00000	103.78354	584.70071	103.78354
7800.00000	103.36719	582.26504	103.36719
7850.00000	102.95874	579.93728	102.95874
7900.00000	102.59235	577.59185	102.59235
7950.00000	102.19116	575.59536	102.19116
8000.00000	101.82109	573.89892	101.82109
8050.00000	101.48074	572.27443	101.48074
8100.00000	101.15875	570.78646	101.15875
8150.00000	100.90711	569.50606	100.90711
8200.00000	100.64697	568.09810	100.64697
8250.00000	100.41558	566.76951	100.41558
8300.00000	100.22869	565.19712	100.22869
8350.00000	100.02151	563.72515	100.02151
8400.00000	99.81433	562.36983	99.81433
8450.00000	99.60830	561.20451	99.60830
8500.00000	99.46901	560.08755	99.46901
8550.00000	99.35449	558.67936	99.35449
8600.00000	99.25504	557.38520	99.25504
8650.00000	99.12234	556.30284	99.12234
8700.00000	99.04906	555.16315	99.04906
8750.00000	98.98021	553.77449	98.98021
8800.00000	98.94240	552.47356	98.94240
8850.00000	98.92927	551.31941	98.92927
8900.00000	98.85779	549.95004	98.85779
8950.00000	98.88510	548.66403	98.88510
9000.00000	98.88675	547.23892	98.88675
9050.00000	98.89678	546.01440	98.89678
9100.00000	98.95954	544.72009	98.95954
9150.00000	99.05575	543.00388	99.05575
9200.00000	99.13707	541.19539	99.13707
9250.00000	99.16803	539.55574	99.16803
9300.00000	99.32523	537.56418	99.32523
9350.00000	99.40386	535.39974	99.40386
9400.00000	99.49370	533.32735	99.49370
9450.00000	99.65461	531.14523	99.65461
9500.00000	99.76282	528.40883	99.76282
9550.00000	99.84147	525.83241	99.84147
9600.00000	99.93434	523.53975	99.93434
9650.00000	100.07001	520.91542	100.07001
9700.00000	100.15262	517.98224	100.15262
9750.00000	100.22568	514.62880	100.22568
9800.00000	100.17064	511.51693	100.17064
9850.00000	100.04866	508.75061	100.04866
9900.00000	99.91563	506.70107	99.91563
9950.00000	99.67605	506.04415	99.67605
10000.00000	99.81401	507.64696	99.81401
10050.00000	100.54782	508.36469	100.54782
10100.00000	101.33658	504.16847	101.33658
10150.00000	101.73002	498.74292	101.73002
10200.00000	101.97390	493.57024	101.97390
10250.00000	102.07943	488.71789	102.07943
10300.00000	102.17046	484.08828	102.17046
10350.00000	102.23784	479.76572	102.23784
10400.00000	102.25341	475.24698	102.25341
10450.00000	102.32536	470.63366	102.32536
10500.00000	102.36251	466.01462	102.36251
10550.00000	102.36180	461.56695	102.36180
10600.00000	102.40370	456.60969	102.40370
10650.00000	102.34478	452.01435	102.34478
10700.00000	102.31811	447.14390	102.31811
10750.00000	102.24511	442.71841	102.24511
10800.00000	102.22983	437.87819	102.22983
10850.00000	102.19767	432.96952	102.19767
10900.00000	102.13736	428.16235	102.13736
10950.00000	101.98647	423.03461	101.98647
11000.00000	101.90427	418.34235	101.90427
11050.00000	101.73568	413.20648	101.73568
11100.00000	101.57451	408.39643	101.57451
11150.00000	101.40133	403.45928	101.40133
11200.00000	101.21351	398.22256	101.21351
11250.00000	100.92102	392.77238	100.92102
11300.00000	100.63089	387.72519	100.63089
11350.00000	100.33445	382.46180	100.33445
11400.00000	99.92406	377.19782	99.92406
11450.00000	99.54305	372.08578	99.54305
11500.00000	99.16502	366.98378	99.16502
11550.00000	98.72618	361.88624	98.72618
11600.00000	98.25939	357.01309	98.25939
11650.00000	97.83227	352.36382	97.83227
11700.00000	97.36544	347.61813	97.36544
11750.00000	96.89036	343.44973	96.89036
11800.00000	96.44804	339.17907	96.44804
11850.00000	96.06518	334.77968	96.06518
11900.00000	95.55031	330.83697	95.55031
11950.00000	95.14953	326.64515	95.14953
12000.00000	94.65631	323.08233	94.65631
12050.00000	94.20452	319.55037	94.20452
12100.00000	93.67799	315.87460	93.67799
12150.00000	93.18607	311.91486	93.18607
12200.00000	92.71181	307.48647	92.71181
12250.00000	92.09397	303.69263	92.09397
12300.00000	91.36476	299.73808	91.36476
12350.00000	90.88093	296.21380	90.88093
12400.00000	90.23808	291.85241	90.23808
12450.00000	89.76855	288.02112	89.76855
12500.00000	89.29388	284.20254	89.29388
12550.00000	88.72874	279.98240	88.72874
12600.00000	88.28194	274.17365	88.28194
12650.00000	87.78455	270.44486	87.78455
12700.00000	87.22584	265.58884	87.22584
12750.00000	86.74680	261.33087	86.74680
12800.00000	86.32096	256.51681	86.32096
12850.00000	85.79278	250.78468	85.79278
12900.00000	85.29792	244.99552	85.29792
12950.00000	85.10995	238.36474	85.10995
13000.00000	84.67688	232.76397	84.67688
13050.00000	84.15269	226.16764	84.15269
13100.00000	83.94995	218.83687	83.94995
13150.00000	84.15890	212.58771	84.15890
13200.00000	84.18119	202.67301	84.18119
13250.00000	84.54620	192.24746	84.54620
13300.00000	85.29936	186.93126	85.29936
13350.00000	86.31296	181.04259	86.31296
13400.00000	87.62351	179.88318	87.62351
13450.00000	88.32112	185.63290	88.32112
13500.00000	88.16337	194.12861	88.16337
13550.00000	87.16385	198.01999	87.16385
13600.00000	85.70485	196.78841	85.70485
13650.00000	84.41250	190.89494	84.41250
13700.00000	83.56401	181.97957	83.56401
13750.00000	82.90204	171.71531	82.90204
13800.00000	83.09990	158.87998	83.09990
13850.00000	83.40238	147.35459	83.40238
13900.00000	83.90117	134.58581	83.90117
13950.00000	85.18763	124.85893	85.18763
14000.00000	86.65062	115.86087	86.65062
14050.00000	88.78612	113.10940	88.78612
14100.00000	91.02714	113.90835	91.02714
14150.00000	92.95986	124.02276	92.95986
14200.00000	93.18004	136.59755	93.18004
14250.00000	92.30344	145.07312	92.30344
14300.00000	90.99180	146.02296	90.99180
14350.00000	89.96197	141.19397	89.96197
14400.00000	89.24174	136.76965	89.24174
14450.00000	88.85896	129.75000	88.85896
14500.00000	88.71428	122.47071	88.71428
14550.00000	88.80415	113.85700	88.80415
14600.00000	89.26987	108.33436	89.26987
14650.00000	90.03869	101.42815	90.03869
14700.00000	90.89893	93.77097	90.89893
14750.00000	91.96928	88.29665	91.96928
14800.00000	93.11301	84.43748	93.11301
14850.00000	94.22228	82.05085	94.22228
14900.00000	95.48463	81.80625	95.48463
14950.00000	96.22226	84.69826	96.22226
15000.00000	96.58350	86.80344	96.58350
15050.00000	96.71148	89.01977	96.71148
15100.00000	96.53965	87.76659	96.53965
15150.00000	96.25981	85.24339	96.25981
15200.00000	96.28046	80.75802	96.28046
15250.00000	96.02657	75.84809	96.02657
15300.00000	96.17394	70.00430	96.17394
15350.00000	96.40669	64.11509	96.40669
15400.00000	96.71429	58.20829	96.71429
15450.00000	97.15841	52.67261	97.15841
15500.00000	97.76954	47.58597	97.76954
15550.00000	98.47412	43.59681	98.47412
15600.00000	99.19872	39.76060	99.19872
15650.00000	99.82898	37.33286	99.82898
15700.00000	100.13056	35.88435	100.13056
15750.00000	100.46409	34.33228	100.46409
15800.00000	100.58376	33.10744	100.58376
15850.00000	100.69895	31.11170	100.69895
15900.00000	100.71618	27.83089	100.71618
15950.00000	100.71510	23.61658	100.71510
16000.00000	100.77877	19.09658	100.77877
16050.00000	100.99103	14.10599	100.99103
16100.00000	101.05099	 9.64801	101.05099
16150.00000	101.34327	 4.61035	101.34327
16200.00000	101.66038	 0.13087	101.66038
16250.00000	101.98001	-4.79643	101.98001
16300.00000	102.31867	-8.65021	102.31867
16350.00000	102.61479	-12.11037	102.61479
16400.00000	102.78646	-15.52978	102.78646
16450.00000	102.97255	-18.02950	102.97255
16500.00000	103.05457	-21.44249	103.05457
16550.00000	103.03661	-24.55539	103.03661
16600.00000	103.07777	-27.89803	103.07777
16650.00000	103.02430	-31.70756	103.02430
16700.00000	103.06836	-35.51406	103.06836
16750.00000	103.12771	-39.77674	103.12771
16800.00000	103.17768	-43.49933	103.17768
16850.00000	103.31993	-47.88510	103.31993
16900.00000	103.39942	-51.57971	103.39942
16950.00000	103.48113	-55.23015	103.48113
17000.00000	103.56556	-58.61012	103.56556
17050.00000	103.64773	-61.65285	103.64773
17100.00000	103.63041	-64.42378	103.63041
17150.00000	103.67741	-67.16250	103.67741
17200.00000	103.63075	-70.23226	103.63075
17250.00000	103.61959	-73.51096	103.61959
17300.00000	103.62325	-76.83354	103.62325
17350.00000	103.62205	-80.20089	103.62205
17400.00000	103.62942	-83.92998	103.62942
17450.00000	103.64164	-87.12805	103.64164
17500.00000	103.61085	-90.43554	103.61085
17550.00000	103.64975	-93.75056	103.64975
17600.00000	103.68089	-96.61712	103.68089
17650.00000	103.71140	-99.14591	103.71140
17700.00000	103.78430	-102.26706	103.78430
17750.00000	103.76720	-104.93948	103.76720
17800.00000	103.78373	-107.68421	103.78373
17850.00000	103.79762	-110.37826	103.79762
17900.00000	103.81234	-113.29305	103.81234
17950.00000	103.83450	-116.17749	103.83450
18000.00000	103.83707	-119.10336	103.83707
18050.00000	103.83651	-122.26283	103.83651
18100.00000	103.87713	-125.19317	103.87713
18150.00000	103.86140	-128.16560	103.86140
18200.00000	103.90486	-131.13675	103.90486
18250.00000	103.93828	-134.21477	103.93828
18300.00000	103.95393	-137.24858	103.95393
18350.00000	103.93922	-140.23340	103.93922
18400.00000	103.96237	-143.27448	103.96237
18450.00000	103.96616	-146.21014	103.96616
18500.00000	103.97321	-149.16959	103.97321
18550.00000	103.99147	-152.43514	103.99147
18600.00000	103.95537	-155.32016	103.95537
18650.00000	103.98199	-158.33503	103.98199
18700.00000	103.97055	-161.23962	103.97055
18750.00000	103.90357	-164.20570	103.90357
18800.00000	103.88132	-167.27276	103.88132
18850.00000	103.84585	-170.05737	103.84585
18900.00000	103.80994	-172.87755	103.80994
18950.00000	103.74734	-175.90047	103.74734
19000.00000	103.69202	-178.85135	103.69202
19050.00000	103.64374	-181.77895	103.64374
19100.00000	103.61225	-184.71659	103.61225
19150.00000	103.56274	-187.15828	103.56274
19200.00000	103.51479	-190.20725	103.51479
19250.00000	103.43570	-192.76088	103.43570
19300.00000	103.41778	-195.43359	103.41778
19350.00000	103.34503	-198.27856	103.34503
19400.00000	103.27199	-200.58881	103.27199
19450.00000	103.21984	-203.53495	103.21984
19500.00000	103.16167	-205.96587	103.16167
19550.00000	103.15127	-208.36780	103.15127
19600.00000	103.05784	-211.11821	103.05784
19650.00000	103.03512	-213.80538	103.03512
19700.00000	103.00827	-216.30174	103.00827
19750.00000	102.95403	-218.71757	102.95403
19800.00000	102.92458	-221.01493	102.92458
19850.00000	102.86698	-223.54335	102.86698
19900.00000	102.84667	-226.18291	102.84667
19950.00000	102.83628	-228.54421	102.83628
20000.00000	102.77196	-231.30625	102.77196
20050.00000	102.73474	-233.72626	102.73474
20100.00000	102.71343	-236.33372	102.71343
20150.00000	102.68278	-238.93146	102.68278
20200.00000	102.66251	-241.45696	102.66251
20250.00000	102.63780	-243.74242	102.63780
20300.00000	102.62074	-246.26226	102.62074
20350.00000	102.60658	-248.73677	102.60658
20400.00000	102.55712	-251.17871	102.55712
20450.00000	102.52178	-253.83229	102.52178
20500.00000	102.50897	-256.51825	102.50897
20550.00000	102.50017	-259.11591	102.50017
20600.00000	102.45097	-261.76599	102.45097
20650.00000	102.44858	-264.65576	102.44858
20700.00000	102.41405	-266.92581	102.41405
20750.00000	102.37657	-269.68269	102.37657
20800.00000	102.35335	-272.06101	102.35335
20850.00000	102.31291	-274.98955	102.31291
20900.00000	102.25158	-277.51838	102.25158
20950.00000	102.24423	-280.46613	102.24423
21000.00000	102.24003	-283.28636	102.24003
21050.00000	102.19722	-285.89894	102.19722
21100.00000	102.16396	-288.58774	102.16396
21150.00000	102.12775	-291.15958	102.12775
21200.00000	102.06618	-293.65900	102.06618
21250.00000	101.97998	-296.38845	101.97998
21300.00000	101.91293	-299.42898	101.91293
21350.00000	101.84435	-302.14401	101.84435
21400.00000	101.78869	-305.19509	101.78869
21450.00000	101.75391	-307.61896	101.75391
21500.00000	101.74457	-310.39209	101.74457
21550.00000	101.70105	-313.20326	101.70105
21600.00000	101.60118	-316.15642	101.60118
21650.00000	101.57271	-318.64473	101.57271
21700.00000	101.45558	-322.05000	101.45558
21750.00000	101.39294	-325.03950	101.39294
21800.00000	101.32206	-328.03828	101.32206
21850.00000	101.25268	-330.87748	101.25268
21900.00000	101.12040	-333.96826	101.12040
21950.00000	100.98216	-337.04340	100.98216
22000.00000	100.85073	-339.96639	100.85073
22050.00000	100.66382	-342.38783	100.66382
22100.00000	100.54372	-344.91263	100.54372
22150.00000	100.40890	-347.82264	100.40890
22200.00000	100.26872	-350.59801	100.26872
22250.00000	100.13233	-353.37977	100.13233
22300.00000	99.99591	-355.92057	99.99591
22350.00000	99.81614	-359.13007	99.81614
22400.00000	99.60976	-361.79254	99.60976
22450.00000	99.50736	-364.49965	99.50736
22500.00000	99.25206	-367.42055	99.25206
22550.00000	99.11625	-369.86881	99.11625
22600.00000	98.82279	-372.56384	98.82279
22650.00000	98.67183	-374.65696	98.67183
22700.00000	98.44155	-376.98958	98.44155
22750.00000	98.24066	-379.44927	98.24066
22800.00000	98.04933	-381.57598	98.04933
22850.00000	97.81230	-383.76879	97.81230
22900.00000	97.66890	-386.03454	97.66890
22950.00000	97.46810	-388.04669	97.46810
23000.00000	97.33434	-390.05164	97.33434
23050.00000	97.02903	-391.85193	97.02903
23100.00000	96.81904	-393.94938	96.81904
23150.00000	96.60536	-396.29400	96.60536
23200.00000	96.47230	-398.40973	96.47230
23250.00000	96.25772	-400.22037	96.25772
