---ACOUSTIC CALIBRATION---
Filename: C:\Data\CL0809 DATA\CL0809300\RightSecondary.calib
Date: 8/9/2019 11:49:15 AM
Format: 4
Probe Tube Correction File: C:\Data\Probe Tube Calibrations\74_ProbeTube.calib
Experiment VIs: 2128
EPL_CFTS.exe V15.0.1f5 (2015)
DAQmx V15.1

Attenuation (dB): 40.000000
Min Freq (Hz): 50.000000
Max Freq (Hz): 99950.000000
Freq Step (Hz): 50.000000
Sample Rate (Hz): 200000.000000
[Smoothing]
Method=None
MA.Iterations=0
MA.Length=0
Loess.Length=0
Loess.Type=Linear
Loess.Robust=FALSE


Freq(Hz)	Mag(dB)	Phase(deg)	Unsmoothed(dB)

50.00000	87.83135	352.69774	87.83135
100.00000	68.18540	318.18838	68.18540
150.00000	60.60912	408.34514	60.60912
200.00000	61.72445	540.02657	61.72445
250.00000	56.04297	838.35290	56.04297
300.00000	67.77838	860.81645	67.77838
350.00000	64.80197	999.26064	64.80197
400.00000	51.10058	1091.55076	51.10058
450.00000	67.69023	1117.74716	67.69023
500.00000	71.55912	1216.89870	71.55912
550.00000	76.27348	1164.66244	76.27348
600.00000	76.96523	1117.59875	76.96523
650.00000	81.95367	1102.32518	81.95367
700.00000	82.81368	1111.49925	82.81368
750.00000	87.17204	1071.13444	87.17204
800.00000	87.96505	1051.89847	87.96505
850.00000	87.65079	1042.81503	87.65079
900.00000	88.08119	1033.52910	88.08119
950.00000	89.31169	1019.03608	89.31169
1000.00000	89.63093	1011.49062	89.63093
1050.00000	89.44903	995.22170	89.44903
1100.00000	88.50472	987.89901	88.50472
1150.00000	87.85257	985.18089	87.85257
1200.00000	86.91125	990.11557	86.91125
1250.00000	88.12331	996.14306	88.12331
1300.00000	89.16060	993.67028	89.16060
1350.00000	89.87350	992.78916	89.87350
1400.00000	90.80644	991.78698	90.80644
1450.00000	91.61807	990.82574	91.61807
1500.00000	93.02659	989.78921	93.02659
1550.00000	94.41526	982.99234	94.41526
1600.00000	95.69376	978.71213	95.69376
1650.00000	96.89258	974.39928	96.89258
1700.00000	101.04652	957.60670	101.04652
1750.00000	98.16687	936.65843	98.16687
1800.00000	97.96295	931.41290	97.96295
1850.00000	97.72955	923.97201	97.72955
1900.00000	97.74082	916.65395	97.74082
1950.00000	97.12088	909.39576	97.12088
2000.00000	96.26974	904.21403	96.26974
2050.00000	95.24138	904.49812	95.24138
2100.00000	95.45749	911.36207	95.45749
2150.00000	96.80035	907.94065	96.80035
2200.00000	97.07217	898.08174	97.07217
2250.00000	96.44715	892.12069	96.44715
2300.00000	96.07059	891.50646	96.07059
2350.00000	96.11099	888.44165	96.11099
2400.00000	96.18233	886.20227	96.18233
2450.00000	95.99147	881.90449	95.99147
2500.00000	95.45626	882.05960	95.45626
2550.00000	95.63656	882.11765	95.63656
2600.00000	95.75501	880.95375	95.75501
2650.00000	95.91265	880.53417	95.91265
2700.00000	96.11293	878.67310	96.11293
2750.00000	96.30928	877.00081	96.30928
2800.00000	96.54166	874.93993	96.54166
2850.00000	96.80131	873.49285	96.80131
2900.00000	97.10968	871.09290	97.10968
2950.00000	97.40667	869.08670	97.40667
3000.00000	97.64653	866.74970	97.64653
3050.00000	97.87482	864.04356	97.87482
3100.00000	98.11369	861.15847	98.11369
3150.00000	98.12284	858.57163	98.12284
3200.00000	98.28173	855.75480	98.28173
3250.00000	98.50961	853.61584	98.50961
3300.00000	98.53160	851.46331	98.53160
3350.00000	98.76232	849.87905	98.76232
3400.00000	98.84258	847.97593	98.84258
3450.00000	98.99281	847.14364	98.99281
3500.00000	99.20221	846.56216	99.20221
3550.00000	99.91149	844.44773	99.91149
3600.00000	99.98681	841.01521	99.98681
3650.00000	100.27851	840.44358	100.27851
3700.00000	100.52564	839.04849	100.52564
3750.00000	101.03057	836.46870	101.03057
3800.00000	101.83388	834.96738	101.83388
3850.00000	102.38522	826.16387	102.38522
3900.00000	102.78157	818.98244	102.78157
3950.00000	102.00116	816.09350	102.00116
4000.00000	101.66605	818.01077	101.66605
4050.00000	102.08082	819.38426	102.08082
4100.00000	102.77669	819.79406	102.77669
4150.00000	104.42803	817.09468	104.42803
4200.00000	105.40402	812.44687	105.40402
4250.00000	105.52513	799.83959	105.52513
4300.00000	105.63632	796.75100	105.63632
4350.00000	106.02506	791.99635	106.02506
4400.00000	106.36013	786.14642	106.36013
4450.00000	106.47871	779.24802	106.47871
4500.00000	106.60193	773.15307	106.60193
4550.00000	106.52052	767.92737	106.52052
4600.00000	106.56513	762.58992	106.56513
4650.00000	106.59418	757.86176	106.59418
4700.00000	106.58069	753.12982	106.58069
4750.00000	106.58392	748.49874	106.58392
4800.00000	106.61870	744.15391	106.61870
4850.00000	106.66530	739.40830	106.66530
4900.00000	106.70064	734.00080	106.70064
4950.00000	106.70237	728.86062	106.70237
5000.00000	106.64835	723.27722	106.64835
5050.00000	106.54511	717.63602	106.54511
5100.00000	106.37217	711.92042	106.37217
5150.00000	106.09170	706.15545	106.09170
5200.00000	105.60121	700.42117	105.60121
5250.00000	104.69146	697.69867	104.69146
5300.00000	104.84878	699.99808	104.84878
5350.00000	105.27016	694.39805	105.27016
5400.00000	105.12307	688.12702	105.12307
5450.00000	104.78432	683.10299	104.78432
5500.00000	104.46275	678.70378	104.46275
5550.00000	104.16570	674.80332	104.16570
5600.00000	103.83693	670.38633	103.83693
5650.00000	103.39465	666.86696	103.39465
5700.00000	102.98960	663.37522	102.98960
5750.00000	102.62396	660.33513	102.62396
5800.00000	102.24322	657.66584	102.24322
5850.00000	101.86433	655.05200	101.86433
5900.00000	101.50924	652.44491	101.50924
5950.00000	101.18219	650.20440	101.18219
6000.00000	100.88488	647.91739	100.88488
6050.00000	100.56218	645.48366	100.56218
6100.00000	100.25756	643.05622	100.25756
6150.00000	99.88294	640.83937	99.88294
6200.00000	99.53132	639.12228	99.53132
6250.00000	99.18533	637.35934	99.18533
6300.00000	98.85860	635.62982	98.85860
6350.00000	98.55299	634.19295	98.55299
6400.00000	98.21784	632.95732	98.21784
6450.00000	97.94639	631.85106	97.94639
6500.00000	97.62791	630.94485	97.62791
6550.00000	97.37246	630.38775	97.37246
6600.00000	97.18398	630.08392	97.18398
6650.00000	97.05440	629.82277	97.05440
6700.00000	96.97677	629.48516	96.97677
6750.00000	97.02190	628.73222	97.02190
6800.00000	97.09227	627.58069	97.09227
6850.00000	97.13325	625.37681	97.13325
6900.00000	97.09583	622.98839	97.09583
6950.00000	97.01974	620.45465	97.01974
7000.00000	96.85150	617.98368	96.85150
7050.00000	96.60925	615.66067	96.60925
7100.00000	96.37162	613.64118	96.37162
7150.00000	96.11966	611.85504	96.11966
7200.00000	95.78135	610.20125	95.78135
7250.00000	95.46597	609.11449	95.46597
7300.00000	95.12341	608.40046	95.12341
7350.00000	94.80964	608.16116	94.80964
7400.00000	94.54056	608.37760	94.54056
7450.00000	94.28587	609.00970	94.28587
7500.00000	94.19687	610.20522	94.19687
7550.00000	94.13513	610.73700	94.13513
7600.00000	94.18008	611.82328	94.18008
7650.00000	94.33038	612.36198	94.33038
7700.00000	94.48743	612.15015	94.48743
7750.00000	94.67850	612.26313	94.67850
7800.00000	94.88965	611.71564	94.88965
7850.00000	95.08799	610.44770	95.08799
7900.00000	95.27194	609.13421	95.27194
7950.00000	95.41248	607.70827	95.41248
8000.00000	95.55552	606.46458	95.55552
8050.00000	95.65330	604.91890	95.65330
8100.00000	95.76886	603.33380	95.76886
8150.00000	95.87033	601.87389	95.87033
8200.00000	96.01124	600.26454	96.01124
8250.00000	96.10467	598.46059	96.10467
8300.00000	96.23197	596.78765	96.23197
8350.00000	96.26751	594.91357	96.26751
8400.00000	96.29811	593.19181	96.29811
8450.00000	96.39026	591.52591	96.39026
8500.00000	96.43173	589.86259	96.43173
8550.00000	96.51311	588.39278	96.51311
8600.00000	96.56998	586.97335	96.56998
8650.00000	96.67155	585.34921	96.67155
8700.00000	96.72953	584.05371	96.72953
8750.00000	96.81656	582.39225	96.81656
8800.00000	96.88746	581.03633	96.88746
8850.00000	97.03796	579.41728	97.03796
8900.00000	97.11837	577.90117	97.11837
8950.00000	97.26134	576.55953	97.26134
9000.00000	97.34175	574.96495	97.34175
9050.00000	97.46701	573.11433	97.46701
9100.00000	97.57493	571.84273	97.57493
9150.00000	97.74992	570.17558	97.74992
9200.00000	97.90639	568.33556	97.90639
9250.00000	97.98687	566.40179	97.98687
9300.00000	98.18302	564.54321	98.18302
9350.00000	98.29916	562.45460	98.29916
9400.00000	98.42617	560.65343	98.42617
9450.00000	98.60681	558.53470	98.60681
9500.00000	98.82158	556.19034	98.82158
9550.00000	98.95482	553.64429	98.95482
9600.00000	99.09097	551.56005	99.09097
9650.00000	99.29133	549.39749	99.29133
9700.00000	99.48261	546.73297	99.48261
9750.00000	99.64938	544.02214	99.64938
9800.00000	99.76315	541.31872	99.76315
9850.00000	99.87915	538.78963	99.87915
9900.00000	100.07086	536.53247	100.07086
9950.00000	100.16728	534.12433	100.16728
10000.00000	100.42478	532.00808	100.42478
10050.00000	100.59487	528.63095	100.59487
10100.00000	100.72368	525.60571	100.72368
10150.00000	100.80048	522.59010	100.80048
10200.00000	100.93727	519.69781	100.93727
10250.00000	101.00510	516.70153	101.00510
10300.00000	101.10580	513.76251	101.10580
10350.00000	101.18717	510.74447	101.18717
10400.00000	101.24606	507.59003	101.24606
10450.00000	101.35132	504.31850	101.35132
10500.00000	101.42220	500.81790	101.42220
10550.00000	101.48069	497.51080	101.48069
10600.00000	101.60797	493.72038	101.60797
10650.00000	101.61653	490.05497	101.61653
10700.00000	101.64832	486.29080	101.64832
10750.00000	101.68266	482.85416	101.68266
10800.00000	101.70778	479.02100	101.70778
10850.00000	101.78781	475.28449	101.78781
10900.00000	101.81680	471.33498	101.81680
10950.00000	101.76379	467.23722	101.76379
11000.00000	101.73730	463.60853	101.73730
11050.00000	101.66336	459.78499	101.66336
11100.00000	101.60393	455.91226	101.60393
11150.00000	101.51175	452.04020	101.51175
11200.00000	101.43994	448.33304	101.43994
11250.00000	101.23991	443.97594	101.23991
11300.00000	101.05849	440.16511	101.05849
11350.00000	100.85134	436.06984	100.85134
11400.00000	100.56246	431.82615	100.56246
11450.00000	100.27132	427.96360	100.27132
11500.00000	100.00817	424.12594	100.00817
11550.00000	99.70783	420.15712	99.70783
11600.00000	99.35015	416.73267	99.35015
11650.00000	99.02095	413.36146	99.02095
11700.00000	98.69378	409.77706	98.69378
11750.00000	98.33814	407.06156	98.33814
11800.00000	98.04999	404.35003	98.04999
11850.00000	97.73816	401.71247	97.73816
11900.00000	97.36576	399.71946	97.36576
11950.00000	97.06887	397.42010	97.06887
12000.00000	96.77299	395.88520	96.77299
12050.00000	96.42541	394.47388	96.42541
12100.00000	96.02526	393.14224	96.02526
12150.00000	95.71478	391.57427	95.71478
12200.00000	95.35972	389.58248	95.35972
12250.00000	94.95775	388.21304	94.95775
12300.00000	94.44716	386.86210	94.44716
12350.00000	94.09732	385.96952	94.09732
12400.00000	93.71721	384.36318	93.71721
12450.00000	93.46316	382.94586	93.46316
12500.00000	93.24954	382.32214	93.24954
12550.00000	92.93270	381.09585	92.93270
12600.00000	92.74874	378.97451	92.74874
12650.00000	92.50860	378.89858	92.50860
12700.00000	92.22473	377.67623	92.22473
12750.00000	92.06533	377.21420	92.06533
12800.00000	91.98318	375.96647	91.98318
12850.00000	91.60738	374.91715	91.60738
12900.00000	91.28127	373.21927	91.28127
12950.00000	91.18686	371.49860	91.18686
13000.00000	90.83022	368.81379	90.83022
13050.00000	90.54341	366.62593	90.54341
13100.00000	90.42423	364.49854	90.42423
13150.00000	90.54928	362.24886	90.54928
13200.00000	90.59088	357.46341	90.59088
13250.00000	90.97548	351.92683	90.97548
13300.00000	91.41543	351.80791	91.41543
13350.00000	92.15067	350.57168	92.15067
13400.00000	93.08713	354.88738	93.08713
13450.00000	93.45386	364.60704	93.45386
13500.00000	92.75020	377.80274	92.75020
13550.00000	91.33266	385.93662	91.33266
13600.00000	89.37500	388.54550	89.37500
13650.00000	87.72907	386.66745	87.72907
13700.00000	86.01255	383.36446	86.01255
13750.00000	85.02814	375.85096	85.02814
13800.00000	84.51020	368.21156	84.51020
13850.00000	84.36736	361.04470	84.36736
13900.00000	84.25837	353.32037	84.25837
13950.00000	85.12901	347.46965	85.12901
14000.00000	86.16788	344.73866	86.16788
14050.00000	87.71742	346.98624	87.71742
14100.00000	89.69081	352.01193	89.69081
14150.00000	91.15953	367.15478	91.15953
14200.00000	90.83947	384.04241	90.83947
14250.00000	89.57707	397.81561	89.57707
14300.00000	88.10196	403.46665	88.10196
14350.00000	86.84994	403.25053	86.84994
14400.00000	85.84470	403.11397	85.84470
14450.00000	85.22907	399.64340	85.22907
14500.00000	85.08267	395.70265	85.08267
14550.00000	85.21889	389.98233	85.21889
14600.00000	85.31445	387.78170	85.31445
14650.00000	86.04377	385.28832	86.04377
14700.00000	86.93906	380.78142	86.93906
14750.00000	87.61658	378.97440	87.61658
14800.00000	88.84094	378.65719	88.84094
14850.00000	90.09346	378.26583	90.09346
14900.00000	91.16068	382.26560	91.16068
14950.00000	91.93520	386.75275	91.93520
15000.00000	92.29104	391.29677	92.29104
15050.00000	92.28514	396.36588	92.28514
15100.00000	92.34717	397.48710	92.34717
15150.00000	91.88253	396.55873	91.88253
15200.00000	92.02349	395.19560	92.02349
15250.00000	91.93224	392.33044	91.93224
15300.00000	92.04833	387.80681	92.04833
15350.00000	92.40180	384.15111	92.40180
15400.00000	92.90208	379.77356	92.90208
15450.00000	93.33935	374.94022	93.33935
15500.00000	94.07185	371.78981	94.07185
15550.00000	94.71822	369.04428	94.71822
15600.00000	95.52423	367.76269	95.52423
15650.00000	96.16020	365.97518	96.16020
15700.00000	96.55929	365.20298	96.55929
15750.00000	96.90220	365.09374	96.90220
15800.00000	97.00963	364.08764	97.00963
15850.00000	97.15572	363.72445	97.15572
15900.00000	97.14777	361.33144	97.14777
15950.00000	97.15008	358.40214	97.15008
16000.00000	97.20256	355.28466	97.20256
16050.00000	97.35733	351.50268	97.35733
16100.00000	97.45198	347.48977	97.45198
16150.00000	97.85818	343.40964	97.85818
16200.00000	98.20801	340.25468	98.20801
16250.00000	98.51003	336.99575	98.51003
16300.00000	98.94467	334.33271	98.94467
16350.00000	99.29440	331.81406	99.29440
16400.00000	99.50124	329.94561	99.50124
16450.00000	99.75923	327.59470	99.75923
16500.00000	99.90356	325.61445	99.90356
16550.00000	99.94915	323.04337	99.94915
16600.00000	99.99803	320.53491	99.99803
16650.00000	100.02107	317.57017	100.02107
16700.00000	100.13435	314.73651	100.13435
16750.00000	100.19861	311.54494	100.19861
16800.00000	100.30671	308.34613	100.30671
16850.00000	100.53087	304.95000	100.53087
16900.00000	100.65631	302.21212	100.65631
16950.00000	100.82632	299.45625	100.82632
17000.00000	100.98611	296.79845	100.98611
17050.00000	101.12749	294.65378	101.12749
17100.00000	101.21635	292.49257	101.21635
17150.00000	101.30520	290.29158	101.30520
17200.00000	101.36830	287.66166	101.36830
17250.00000	101.43878	284.90557	101.43878
17300.00000	101.52179	282.17998	101.52179
17350.00000	101.56761	279.15937	101.56761
17400.00000	101.69384	275.86642	101.69384
17450.00000	101.77368	272.95860	101.77368
17500.00000	101.84341	270.14388	101.84341
17550.00000	101.90111	267.22638	101.90111
17600.00000	102.07142	264.99941	102.07142
17650.00000	102.16646	262.45439	102.16646
17700.00000	102.26888	259.94706	102.26888
17750.00000	102.34944	257.66416	102.34944
17800.00000	102.44575	255.15486	102.44575
17850.00000	102.51221	252.64363	102.51221
17900.00000	102.60114	250.28400	102.60114
17950.00000	102.65562	247.69692	102.65562
18000.00000	102.75074	244.92053	102.75074
18050.00000	102.81879	241.95303	102.81879
18100.00000	102.89130	239.56031	102.89130
18150.00000	102.96008	236.58424	102.96008
18200.00000	103.03933	233.94752	103.03933
18250.00000	103.14121	231.06859	103.14121
18300.00000	103.22786	228.27747	103.22786
18350.00000	103.30737	225.47096	103.30737
18400.00000	103.37857	222.62416	103.37857
18450.00000	103.45619	219.77467	103.45619
18500.00000	103.52898	217.08225	103.52898
18550.00000	103.60965	214.05389	103.60965
18600.00000	103.62382	211.05635	103.62382
18650.00000	103.72589	208.07584	103.72589
18700.00000	103.75773	205.46348	103.75773
18750.00000	103.79386	202.42965	103.79386
18800.00000	103.80917	199.53632	103.80917
18850.00000	103.83089	196.53305	103.83089
18900.00000	103.81153	193.96680	103.81153
18950.00000	103.85180	190.71802	103.85180
19000.00000	103.80264	187.94037	103.80264
19050.00000	103.79561	184.88814	103.79561
19100.00000	103.77961	182.18760	103.77961
19150.00000	103.76941	179.55309	103.76941
19200.00000	103.75522	176.53538	103.75522
19250.00000	103.72675	174.03918	103.72675
19300.00000	103.72565	171.46035	103.72565
19350.00000	103.72059	168.75188	103.72059
19400.00000	103.65902	166.40492	103.65902
19450.00000	103.64252	163.45815	103.64252
19500.00000	103.64480	161.23983	103.64480
19550.00000	103.63364	158.76040	103.63364
19600.00000	103.59070	156.18432	103.59070
19650.00000	103.58133	153.86571	103.58133
19700.00000	103.58024	151.28347	103.58024
19750.00000	103.56938	148.93851	103.56938
19800.00000	103.59148	146.71521	103.59148
19850.00000	103.57124	144.09763	103.57124
19900.00000	103.60770	141.81632	103.60770
19950.00000	103.61999	139.34936	103.61999
20000.00000	103.60479	136.58824	103.60479
20050.00000	103.62810	134.29353	103.62810
20100.00000	103.65347	131.74473	103.65347
20150.00000	103.69287	128.98563	103.69287
20200.00000	103.69377	126.58069	103.69377
20250.00000	103.70592	124.04499	103.70592
20300.00000	103.75235	121.45304	103.75235
20350.00000	103.75469	118.91398	103.75469
20400.00000	103.79336	116.14718	103.79336
20450.00000	103.79852	113.41742	103.79852
20500.00000	103.82253	110.53048	103.82253
20550.00000	103.80974	107.69862	103.80974
20600.00000	103.79588	104.88884	103.79588
20650.00000	103.83148	101.92857	103.83148
20700.00000	103.82451	99.28005	103.82451
20750.00000	103.78505	96.33728	103.78505
20800.00000	103.75922	93.45675	103.75922
20850.00000	103.72511	90.38945	103.72511
20900.00000	103.68374	87.52741	103.68374
20950.00000	103.64911	84.51023	103.64911
21000.00000	103.62026	81.58212	103.62026
21050.00000	103.56055	78.57320	103.56055
21100.00000	103.51193	75.72037	103.51193
21150.00000	103.44120	72.92691	103.44120
21200.00000	103.35106	70.05351	103.35106
21250.00000	103.23680	67.08430	103.23680
21300.00000	103.14103	64.28336	103.14103
21350.00000	103.03387	61.37447	103.03387
21400.00000	102.93403	58.09819	102.93403
21450.00000	102.88090	55.56147	102.88090
21500.00000	102.78371	53.21107	102.78371
21550.00000	102.68338	50.34367	102.68338
21600.00000	102.52948	47.50958	102.52948
21650.00000	102.39143	44.99840	102.39143
21700.00000	102.23641	41.96692	102.23641
21750.00000	102.08689	39.34569	102.08689
21800.00000	101.94852	36.59212	101.94852
21850.00000	101.79022	34.17193	101.79022
21900.00000	101.65246	31.82770	101.65246
21950.00000	101.48097	29.26138	101.48097
22000.00000	101.27774	27.31833	101.27774
22050.00000	101.08637	25.39398	101.08637
22100.00000	100.91212	23.55881	100.91212
22150.00000	100.79947	21.62027	100.79947
22200.00000	100.65883	19.13246	100.65883
22250.00000	100.55251	17.20829	100.55251
22300.00000	100.45734	15.52103	100.45734
22350.00000	100.32759	13.37453	100.32759
22400.00000	100.26661	10.82300	100.26661
22450.00000	100.12731	 9.43504	100.12731
22500.00000	100.01674	 7.10664	100.01674
22550.00000	99.93303	 5.20967	99.93303
22600.00000	99.77953	 3.22287	99.77953
22650.00000	99.60826	 1.38300	99.60826
22700.00000	99.45665	-0.51653	99.45665
22750.00000	99.43954	-2.84170	99.43954
22800.00000	99.32558	-4.53969	99.32558
22850.00000	99.19609	-6.54684	99.19609
22900.00000	99.18902	-8.07113	99.18902
22950.00000	99.13386	-10.07685	99.13386
23000.00000	99.02247	-12.27790	99.02247
23050.00000	98.91253	-14.48865	98.91253
23100.00000	98.77594	-16.08026	98.77594
23150.00000	98.63405	-18.34485	98.63405
23200.00000	98.48260	-20.52914	98.48260
23250.00000	98.53082	-22.72710	98.53082
23300.00000	98.43426	-25.16647	98.43426
23350.00000	98.21550	-26.86428	98.21550
23400.00000	98.12812	-28.48234	98.12812
23450.00000	98.01196	-30.33186	98.01196
