---ACOUSTIC CALIBRATION---
Filename: C:\Data\AZH DATA\AZH21\RightSecondary.calib
Date: 8/27/2019 12:04:32 PM
Format: 4
Probe Tube Correction File: C:\Data\Probe Tube Calibrations\50_ProbeTube.calib
Experiment VIs: 850
EPL_CFTS.exe V12.0.1 (2012)
DAQmx V9.6

Attenuation (dB): 40.000000
Min Freq (Hz): 50.000000
Max Freq (Hz): 49950.000000
Freq Step (Hz): 50.000000
Sample Rate (Hz): 100000.000000
[Smoothing]
Method=None
MA.Iterations=0
MA.Length=0
Loess.Length=0
Loess.Type=Linear
Loess.Robust=FALSE


Freq(Hz)	Mag(dB)	Phase(deg)	Unsmoothed(dB)

50.00000	105.24948	583.34752	105.24948
100.00000	84.98606	504.60974	84.98606
150.00000	83.73058	474.99244	83.73058
200.00000	85.87665	402.48388	85.87665
250.00000	88.98230	429.12592	88.98230
300.00000	91.41484	354.93330	91.41484
350.00000	87.33558	342.95846	87.33558
400.00000	85.77077	317.31399	85.77077
450.00000	85.37075	314.37340	85.37075
500.00000	81.63149	321.90954	81.63149
550.00000	86.96141	324.50626	86.96141
600.00000	90.65935	330.38206	90.65935
650.00000	92.42582	332.33147	92.42582
700.00000	94.90452	321.20918	94.90452
750.00000	96.48462	320.04923	96.48462
800.00000	99.57282	307.16814	99.57282
850.00000	101.80065	298.00245	101.80065
900.00000	103.41829	279.31720	103.41829
950.00000	104.78870	262.52399	104.78870
1000.00000	104.71941	244.61892	104.71941
1050.00000	104.16231	235.59555	104.16231
1100.00000	104.41592	223.76404	104.41592
1150.00000	103.65361	213.18504	103.65361
1200.00000	103.46041	210.71913	103.46041
1250.00000	103.50666	200.24866	103.50666
1300.00000	102.65843	194.34648	102.65843
1350.00000	101.81118	188.54392	101.81118
1400.00000	101.18824	189.80120	101.18824
1450.00000	101.26726	187.82527	101.26726
1500.00000	101.32649	189.22587	101.32649
1550.00000	101.28645	187.10491	101.28645
1600.00000	102.17477	184.29042	102.17477
1650.00000	102.77817	175.44977	102.77817
1700.00000	101.52733	171.19885	101.52733
1750.00000	101.62427	169.89161	101.62427
1800.00000	101.32449	165.97387	101.32449
1850.00000	101.00921	167.10190	101.00921
1900.00000	101.88885	169.67315	101.88885
1950.00000	103.01696	161.94455	103.01696
2000.00000	102.78728	152.63632	102.78728
2050.00000	101.71295	148.99471	101.71295
2100.00000	101.61085	147.29405	101.61085
2150.00000	101.24616	143.57309	101.24616
2200.00000	100.76169	140.47552	100.76169
2250.00000	99.79301	139.75958	99.79301
2300.00000	99.73064	143.17319	99.73064
2350.00000	99.51537	146.62105	99.51537
2400.00000	99.82104	146.79643	99.82104
2450.00000	99.87050	146.15493	99.87050
2500.00000	99.91882	149.43580	99.91882
2550.00000	100.37029	152.22368	100.37029
2600.00000	101.31222	156.23725	101.31222
2650.00000	102.69546	154.97676	102.69546
2700.00000	104.03808	147.93487	104.03808
2750.00000	104.46939	138.28905	104.46939
2800.00000	104.31984	129.82030	104.31984
2850.00000	103.98596	124.68929	103.98596
2900.00000	103.52507	119.71518	103.52507
2950.00000	103.22256	116.93164	103.22256
3000.00000	102.97095	113.66813	102.97095
3050.00000	102.58901	110.67003	102.58901
3100.00000	102.39860	108.98851	102.39860
3150.00000	102.14589	104.40749	102.14589
3200.00000	101.44713	102.18872	101.44713
3250.00000	100.48030	100.36560	100.48030
3300.00000	99.59588	99.84988	99.59588
3350.00000	98.15437	103.33402	98.15437
3400.00000	97.37449	112.36650	97.37449
3450.00000	97.39683	123.55850	97.39683
3500.00000	98.26981	129.61174	98.26981
3550.00000	98.87048	133.81541	98.87048
3600.00000	99.39220	135.96480	99.39220
3650.00000	99.33665	136.90839	99.33665
3700.00000	99.06208	142.26351	99.06208
3750.00000	99.68806	155.46347	99.68806
3800.00000	101.45825	163.62426	101.45825
3850.00000	103.50073	169.18425	103.50073
3900.00000	105.45497	167.88352	105.45497
3950.00000	107.12327	164.82778	107.12327
4000.00000	108.58075	160.53770	108.58075
4050.00000	109.66802	156.02188	109.66802
4100.00000	110.57242	151.92447	110.57242
4150.00000	111.54708	148.41262	111.54708
4200.00000	112.31309	144.98649	112.31309
4250.00000	113.23358	142.69218	113.23358
4300.00000	114.13260	139.94057	114.13260
4350.00000	115.18952	137.33173	115.18952
4400.00000	116.42857	134.53341	116.42857
4450.00000	117.70238	130.39385	117.70238
4500.00000	119.11211	125.26384	119.11211
4550.00000	120.51531	118.81084	120.51531
4600.00000	121.90006	111.07839	121.90006
4650.00000	123.27650	101.43878	123.27650
4700.00000	124.54441	90.08433	124.54441
4750.00000	125.57826	76.54795	125.57826
4800.00000	126.27722	61.40174	126.27722
4850.00000	126.47179	45.65834	126.47179
4900.00000	126.18962	30.47878	126.18962
4950.00000	125.48470	16.61731	125.48470
5000.00000	124.35896	 5.23425	124.35896
5050.00000	123.22735	-2.68844	123.22735
5100.00000	121.82513	-11.12005	121.82513
5150.00000	119.28441	-10.67504	119.28441
5200.00000	118.73218	10.08515	118.73218
5250.00000	122.07026	13.25674	122.07026
5300.00000	123.79317	-0.90297	123.79317
5350.00000	124.06499	-14.85922	124.06499
5400.00000	123.80812	-25.84794	123.80812
5450.00000	123.39167	-34.83610	123.39167
5500.00000	122.91018	-42.16429	122.91018
5550.00000	122.45117	-48.68658	122.45117
5600.00000	121.98430	-54.66666	121.98430
5650.00000	121.55862	-59.97379	121.55862
5700.00000	121.10119	-65.41841	121.10119
5750.00000	120.71080	-69.94949	120.71080
5800.00000	120.28905	-74.42930	120.28905
5850.00000	119.90868	-78.89743	119.90868
5900.00000	119.54027	-82.88411	119.54027
5950.00000	119.19121	-86.68068	119.19121
6000.00000	118.86459	-90.47480	118.86459
6050.00000	118.50612	-94.18767	118.50612
6100.00000	118.20108	-98.01208	118.20108
6150.00000	117.81992	-101.45046	117.81992
6200.00000	117.50296	-104.82806	117.50296
6250.00000	117.20026	-108.22902	117.20026
6300.00000	116.89994	-111.78460	116.89994
6350.00000	116.57931	-114.80722	116.57931
6400.00000	116.24109	-118.19173	116.24109
6450.00000	115.97835	-121.09906	115.97835
6500.00000	115.66261	-124.05243	115.66261
6550.00000	115.40606	-126.53941	115.40606
6600.00000	115.06834	-129.66813	115.06834
6650.00000	114.67944	-132.27997	114.67944
6700.00000	114.38671	-135.12668	114.38671
6750.00000	114.04456	-137.07365	114.04456
6800.00000	113.79962	-139.33658	113.79962
6850.00000	113.58014	-141.07370	113.58014
6900.00000	113.28688	-143.45838	113.28688
6950.00000	113.04165	-144.96718	113.04165
7000.00000	112.84702	-147.16965	112.84702
7050.00000	112.63609	-148.92886	112.63609
7100.00000	112.42587	-150.92191	112.42587
7150.00000	112.27919	-152.54264	112.27919
7200.00000	112.13552	-154.17967	112.13552
7250.00000	111.93512	-156.11360	111.93512
7300.00000	111.81499	-157.72427	111.81499
7350.00000	111.76683	-157.94664	111.76683
7400.00000	111.61321	-159.62532	111.61321
7450.00000	111.60515	-160.96354	111.60515
7500.00000	111.67332	-162.66063	111.67332
7550.00000	111.74769	-164.01186	111.74769
7600.00000	111.80776	-165.89681	111.80776
7650.00000	111.87956	-167.53463	111.87956
7700.00000	112.04770	-170.07424	112.04770
7750.00000	112.12864	-172.27351	112.12864
7800.00000	112.36353	-175.37435	112.36353
7850.00000	112.38543	-178.62082	112.38543
7900.00000	112.45863	-182.02447	112.45863
7950.00000	112.49766	-185.84544	112.49766
8000.00000	112.49411	-189.13433	112.49411
8050.00000	112.51346	-193.48539	112.51346
8100.00000	112.45105	-196.82739	112.45105
8150.00000	112.35352	-201.21513	112.35352
8200.00000	112.26221	-204.93978	112.26221
8250.00000	112.15551	-208.84415	112.15551
8300.00000	111.97337	-212.86166	111.97337
8350.00000	111.77035	-216.56251	111.77035
8400.00000	111.53741	-220.06299	111.53741
8450.00000	111.23038	-223.81617	111.23038
8500.00000	110.92069	-227.22351	110.92069
8550.00000	110.62071	-230.07777	110.62071
8600.00000	110.28407	-233.20716	110.28407
8650.00000	109.97224	-235.87350	109.97224
8700.00000	109.68091	-239.03582	109.68091
8750.00000	109.33469	-240.79637	109.33469
8800.00000	109.03094	-243.46246	109.03094
8850.00000	108.72437	-245.48321	108.72437
8900.00000	108.50804	-247.95807	108.50804
8950.00000	108.28904	-250.16919	108.28904
9000.00000	107.98698	-252.41301	107.98698
9050.00000	107.83691	-254.61259	107.83691
9100.00000	107.66831	-256.31643	107.66831
9150.00000	107.50264	-258.01816	107.50264
9200.00000	107.35096	-259.70406	107.35096
9250.00000	107.17827	-261.39514	107.17827
9300.00000	107.05771	-263.26870	107.05771
9350.00000	106.98347	-265.01655	106.98347
9400.00000	106.72610	-266.31876	106.72610
9450.00000	106.62383	-268.33234	106.62383
9500.00000	106.56129	-270.14774	106.56129
9550.00000	106.44330	-272.04001	106.44330
9600.00000	106.40378	-274.44698	106.40378
9650.00000	106.36385	-276.82296	106.36385
9700.00000	106.33434	-278.42346	106.33434
9750.00000	106.37106	-280.86220	106.37106
9800.00000	106.28634	-282.06689	106.28634
9850.00000	106.22128	-283.87426	106.22128
9900.00000	105.97029	-285.70284	105.97029
9950.00000	105.80071	-287.19319	105.80071
10000.00000	105.60234	-289.96267	105.60234
10050.00000	105.37619	-292.13107	105.37619
10100.00000	105.11999	-294.78076	105.11999
10150.00000	104.88500	-298.20736	104.88500
10200.00000	104.78674	-300.85475	104.78674
10250.00000	104.68843	-304.07079	104.68843
10300.00000	104.70338	-306.52120	104.70338
10350.00000	104.61833	-308.19750	104.61833
10400.00000	104.47371	-310.35654	104.47371
10450.00000	104.42113	-312.22817	104.42113
10500.00000	104.34901	-313.91482	104.34901
10550.00000	104.14983	-316.09545	104.14983
10600.00000	103.92906	-318.18096	103.92906
10650.00000	103.70377	-320.19596	103.70377
10700.00000	103.55866	-323.89509	103.55866
10750.00000	103.48578	-326.61903	103.48578
10800.00000	103.38049	-329.19614	103.38049
10850.00000	103.33628	-332.43219	103.33628
10900.00000	103.26967	-334.45535	103.26967
10950.00000	103.14725	-336.10783	103.14725
11000.00000	102.98348	-338.25046	102.98348
11050.00000	102.61874	-340.14112	102.61874
11100.00000	102.34030	-342.87867	102.34030
11150.00000	101.95294	-345.42926	101.95294
11200.00000	101.74587	-347.74040	101.74587
11250.00000	101.45329	-350.70647	101.45329
11300.00000	101.21512	-353.23032	101.21512
11350.00000	100.95548	-354.83568	100.95548
11400.00000	100.68742	-356.25223	100.68742
11450.00000	100.42730	-358.02099	100.42730
11500.00000	100.28463	-358.79655	100.28463
11550.00000	99.87049	-359.83108	99.87049
11600.00000	99.67406	-361.87461	99.67406
11650.00000	99.40199	-362.66406	99.40199
11700.00000	99.27576	-364.52779	99.27576
11750.00000	99.19942	-366.15800	99.19942
11800.00000	99.12504	-368.16384	99.12504
11850.00000	99.11800	-368.63633	99.11800
11900.00000	98.87500	-370.42374	98.87500
11950.00000	98.78709	-371.77879	98.78709
12000.00000	98.57209	-373.14221	98.57209
12050.00000	98.31170	-374.88699	98.31170
12100.00000	98.23820	-377.17103	98.23820
12150.00000	98.02936	-380.00023	98.02936
12200.00000	97.97116	-382.62468	97.97116
12250.00000	97.80149	-384.06725	97.80149
12300.00000	98.77010	-386.69399	98.77010
12350.00000	97.42211	-388.64188	97.42211
12400.00000	97.13957	-389.27047	97.13957
12450.00000	96.87898	-391.28918	96.87898
12500.00000	96.54700	-393.59197	96.54700
12550.00000	96.18221	-395.67649	96.18221
12600.00000	95.78153	-397.25978	95.78153
12650.00000	95.67952	-399.31702	95.67952
12700.00000	95.24573	-400.47780	95.24573
12750.00000	94.87970	-402.18403	94.87970
12800.00000	94.58162	-402.52113	94.58162
12850.00000	93.86334	-403.76827	93.86334
12900.00000	93.47884	-405.00656	93.47884
12950.00000	93.31035	-406.59025	93.31035
13000.00000	93.06654	-408.02638	93.06654
13050.00000	93.05617	-406.82882	93.05617
13100.00000	92.76781	-407.14067	92.76781
13150.00000	92.64158	-406.39699	92.64158
13200.00000	92.23287	-404.73587	92.23287
13250.00000	91.77879	-405.01849	91.77879
13300.00000	91.40859	-404.32072	91.40859
13350.00000	91.12215	-407.39136	91.12215
13400.00000	91.00396	-408.36469	91.00396
13450.00000	90.95107	-406.73686	90.95107
13500.00000	90.85757	-406.37653	90.85757
13550.00000	90.47593	-406.83766	90.47593
13600.00000	90.35215	-404.12558	90.35215
13650.00000	90.06785	-402.00647	90.06785
13700.00000	89.77749	-403.19551	89.77749
13750.00000	89.49163	-401.75226	89.49163
13800.00000	89.23785	-404.00723	89.23785
13850.00000	89.15537	-403.88098	89.15537
13900.00000	89.00457	-402.61832	89.00457
13950.00000	89.21001	-401.58848	89.21001
14000.00000	89.23220	-401.21105	89.23220
14050.00000	89.45099	-400.80144	89.45099
14100.00000	89.15037	-398.63035	89.15037
14150.00000	89.36842	-397.82224	89.36842
14200.00000	89.45751	-395.77836	89.45751
14250.00000	89.66343	-392.16500	89.66343
14300.00000	89.84821	-391.57249	89.84821
14350.00000	89.71847	-389.92366	89.71847
14400.00000	89.28680	-390.43031	89.28680
14450.00000	89.32090	-388.03385	89.32090
14500.00000	89.53751	-391.05849	89.53751
14550.00000	90.17477	-390.32858	90.17477
14600.00000	90.29007	-390.09734	90.29007
14650.00000	90.72225	-386.09173	90.72225
14700.00000	90.92474	-390.67104	90.92474
14750.00000	91.19402	-388.96020	91.19402
14800.00000	91.29879	-388.23860	91.29879
14850.00000	91.57240	-387.41299	91.57240
14900.00000	91.93201	-389.44045	91.93201
14950.00000	92.07727	-391.02725	92.07727
15000.00000	92.51944	-391.43470	92.51944
15050.00000	92.64879	-390.68304	92.64879
15100.00000	92.86440	-391.78058	92.86440
15150.00000	93.28189	-392.37655	93.28189
15200.00000	93.45037	-391.90369	93.45037
15250.00000	93.53837	-392.64114	93.53837
15300.00000	93.89085	-393.33842	93.89085
15350.00000	94.03702	-394.30971	94.03702
15400.00000	94.11078	-394.20894	94.11078
15450.00000	94.13767	-395.14390	94.13767
15500.00000	94.52170	-396.73087	94.52170
15550.00000	94.82182	-399.02880	94.82182
15600.00000	95.10368	-399.85451	95.10368
15650.00000	95.72208	-398.78092	95.72208
15700.00000	95.71438	-399.87672	95.71438
15750.00000	96.05016	-400.05520	96.05016
15800.00000	96.21302	-400.39486	96.21302
15850.00000	96.55050	-401.62726	96.55050
15900.00000	96.77380	-402.64096	96.77380
15950.00000	97.13676	-403.80496	97.13676
16000.00000	97.46600	-404.44423	97.46600
16050.00000	97.68888	-405.68696	97.68888
16100.00000	97.85332	-408.15183	97.85332
16150.00000	98.20980	-409.56503	98.20980
16200.00000	98.65751	-410.99901	98.65751
16250.00000	98.97834	-412.00609	98.97834
16300.00000	99.40181	-413.40736	99.40181
16350.00000	99.67379	-414.88664	99.67379
16400.00000	100.00146	-416.33471	100.00146
16450.00000	100.34363	-418.06762	100.34363
16500.00000	100.57947	-420.34362	100.57947
16550.00000	100.90316	-423.31835	100.90316
16600.00000	101.28681	-425.44366	101.28681
16650.00000	101.60143	-427.36334	101.60143
16700.00000	101.94359	-428.86789	101.94359
16750.00000	102.05641	-431.61453	102.05641
16800.00000	102.33361	-434.78710	102.33361
16850.00000	102.70103	-437.41076	102.70103
16900.00000	103.06992	-439.50151	103.06992
16950.00000	103.28518	-441.44650	103.28518
17000.00000	103.29679	-443.97045	103.29679
17050.00000	103.55445	-446.31136	103.55445
17100.00000	103.70409	-448.48932	103.70409
17150.00000	104.13285	-451.90719	104.13285
17200.00000	104.42212	-453.61282	104.42212
17250.00000	104.53187	-456.44633	104.53187
17300.00000	104.80392	-459.10832	104.80392
17350.00000	104.87905	-461.48819	104.87905
17400.00000	105.17730	-464.38907	105.17730
17450.00000	105.30838	-467.16817	105.30838
17500.00000	105.52373	-469.65687	105.52373
17550.00000	105.70201	-472.50850	105.70201
17600.00000	105.98246	-474.72540	105.98246
17650.00000	106.13126	-477.87407	106.13126
17700.00000	106.28418	-480.89824	106.28418
17750.00000	106.57953	-482.99022	106.57953
17800.00000	106.65259	-486.35778	106.65259
17850.00000	106.88482	-488.64088	106.88482
17900.00000	106.99733	-491.18542	106.99733
17950.00000	107.20673	-494.28708	107.20673
18000.00000	107.36878	-497.99208	107.36878
18050.00000	107.65902	-500.21590	107.65902
18100.00000	107.78469	-503.66636	107.78469
18150.00000	107.92376	-505.84820	107.92376
18200.00000	107.99183	-509.31028	107.99183
18250.00000	108.22053	-511.74696	108.22053
18300.00000	108.46067	-514.94234	108.46067
18350.00000	108.62257	-517.68440	108.62257
18400.00000	108.72452	-521.02407	108.72452
18450.00000	108.81638	-525.41754	108.81638
18500.00000	108.97961	-528.48448	108.97961
18550.00000	109.12068	-531.18691	109.12068
18600.00000	109.33702	-534.97820	109.33702
18650.00000	109.29201	-538.06799	109.29201
18700.00000	109.41110	-541.78490	109.41110
18750.00000	109.57840	-545.31553	109.57840
18800.00000	109.78149	-548.16979	109.78149
18850.00000	109.73560	-551.82147	109.73560
18900.00000	109.79421	-555.21710	109.79421
18950.00000	109.89082	-559.29418	109.89082
19000.00000	109.81648	-562.34287	109.81648
19050.00000	109.99013	-566.10758	109.99013
19100.00000	109.96819	-569.36972	109.96819
19150.00000	110.10582	-572.90350	110.10582
19200.00000	110.11324	-576.05356	110.11324
19250.00000	110.09605	-580.68760	110.09605
19300.00000	110.03773	-583.52872	110.03773
19350.00000	110.04253	-587.03885	110.04253
19400.00000	109.96757	-590.39818	109.96757
19450.00000	110.05991	-593.17296	110.05991
19500.00000	109.91758	-597.50681	109.91758
19550.00000	109.90122	-600.79506	109.90122
19600.00000	109.92530	-604.78417	109.92530
19650.00000	109.80584	-607.59011	109.80584
19700.00000	109.64785	-610.93264	109.64785
19750.00000	109.55352	-613.73176	109.55352
19800.00000	109.58555	-617.94291	109.58555
19850.00000	109.53842	-620.72684	109.53842
19900.00000	109.37141	-624.57553	109.37141
19950.00000	109.25177	-627.69031	109.25177
20000.00000	109.14850	-630.98189	109.14850
20050.00000	109.06680	-634.06432	109.06680
20100.00000	108.86134	-637.20979	108.86134
20150.00000	108.78784	-639.42576	108.78784
20200.00000	108.60108	-643.02708	108.60108
20250.00000	108.39579	-645.87055	108.39579
20300.00000	108.16776	-648.86341	108.16776
20350.00000	108.08662	-651.73163	108.08662
20400.00000	107.84773	-653.53360	107.84773
20450.00000	107.56733	-656.08378	107.56733
20500.00000	107.42985	-658.92674	107.42985
20550.00000	107.02313	-660.38435	107.02313
20600.00000	106.91059	-662.14070	106.91059
20650.00000	106.72548	-663.96389	106.72548
20700.00000	106.46066	-665.54315	106.46066
20750.00000	106.34884	-666.93861	106.34884
20800.00000	106.13914	-667.84684	106.13914
20850.00000	106.04830	-668.98444	106.04830
20900.00000	105.89023	-669.90009	105.89023
20950.00000	105.78458	-670.12773	105.78458
21000.00000	105.71274	-670.73977	105.71274
21050.00000	105.85388	-671.05635	105.85388
21100.00000	105.87308	-671.32020	105.87308
21150.00000	106.01795	-672.14280	106.01795
21200.00000	106.16616	-672.68703	106.16616
21250.00000	106.32180	-674.99832	106.32180
21300.00000	106.57492	-675.66288	106.57492
21350.00000	106.73302	-676.98072	106.73302
21400.00000	106.90295	-679.11952	106.90295
21450.00000	107.10377	-681.31505	107.10377
21500.00000	107.29034	-683.82195	107.29034
21550.00000	107.36425	-685.83929	107.36425
21600.00000	107.57451	-688.44716	107.57451
21650.00000	107.65125	-691.19099	107.65125
21700.00000	107.76494	-693.51356	107.76494
21750.00000	107.86679	-696.18256	107.86679
21800.00000	107.96470	-698.80673	107.96470
21850.00000	107.94697	-701.33970	107.94697
21900.00000	108.02790	-704.05194	108.02790
21950.00000	108.08799	-706.34714	108.08799
22000.00000	108.19107	-708.95645	108.19107
22050.00000	108.17766	-711.05213	108.17766
22100.00000	108.19304	-713.80572	108.19304
22150.00000	108.20356	-716.04147	108.20356
22200.00000	108.29616	-718.62083	108.29616
22250.00000	108.27650	-720.60886	108.27650
22300.00000	108.17584	-723.07924	108.17584
22350.00000	108.29087	-725.54686	108.29087
22400.00000	108.31997	-728.05999	108.31997
22450.00000	108.30668	-730.21782	108.30668
22500.00000	108.27366	-731.29340	108.27366
22550.00000	108.27104	-733.78091	108.27104
22600.00000	108.25760	-736.76221	108.25760
22650.00000	108.32072	-739.07354	108.32072
22700.00000	108.36036	-740.50661	108.36036
22750.00000	108.31411	-740.95099	108.31411
