---ACOUSTIC CALIBRATION---
Filename: C:\Data\AZH DATA\AZH21\RightPrimary.calib
Date: 8/27/2019 12:03:01 PM
Format: 4
Probe Tube Correction File: C:\Data\Probe Tube Calibrations\50_ProbeTube.calib
Experiment VIs: 850
EPL_CFTS.exe V12.0.1 (2012)
DAQmx V9.6

Attenuation (dB): 40.000000
Min Freq (Hz): 50.000000
Max Freq (Hz): 49950.000000
Freq Step (Hz): 50.000000
Sample Rate (Hz): 100000.000000
[Smoothing]
Method=None
MA.Iterations=0
MA.Length=0
Loess.Length=0
Loess.Type=Linear
Loess.Robust=FALSE


Freq(Hz)	Mag(dB)	Phase(deg)	Unsmoothed(dB)

50.00000	105.28622	472.59085	105.28622
100.00000	75.33035	543.94712	75.33035
150.00000	77.00710	490.76203	77.00710
200.00000	81.00260	450.11813	81.00260
250.00000	90.91751	454.51319	90.91751
300.00000	93.64031	358.42169	93.64031
350.00000	81.72012	395.45462	81.72012
400.00000	86.19630	395.30434	86.19630
450.00000	88.50501	365.14767	88.50501
500.00000	90.19798	397.94501	90.19798
550.00000	93.59879	371.17325	93.59879
600.00000	96.13164	354.01674	96.13164
650.00000	97.81185	346.20434	97.81185
700.00000	100.57700	328.30698	100.57700
750.00000	102.17178	313.39442	102.17178
800.00000	102.43132	293.61045	102.43132
850.00000	101.93499	274.41966	101.93499
900.00000	99.95906	258.50107	99.95906
950.00000	98.29925	255.76946	98.29925
1000.00000	96.80720	255.65131	96.80720
1050.00000	94.82821	272.11957	94.82821
1100.00000	96.78870	294.39368	96.78870
1150.00000	99.52500	299.28125	99.52500
1200.00000	102.04476	298.20322	102.04476
1250.00000	103.79820	289.49823	103.79820
1300.00000	105.47578	283.45035	105.47578
1350.00000	106.83882	274.54518	106.83882
1400.00000	107.78181	267.36890	107.78181
1450.00000	108.69429	260.73121	108.69429
1500.00000	109.95132	254.58410	109.95132
1550.00000	110.67028	244.76702	110.67028
1600.00000	111.96381	234.94691	111.96381
1650.00000	113.04061	218.32988	113.04061
1700.00000	111.78603	207.90914	111.78603
1750.00000	111.49504	202.79022	111.49504
1800.00000	111.25863	198.18567	111.25863
1850.00000	111.40860	197.32544	111.40860
1900.00000	112.64967	193.40360	112.64967
1950.00000	113.21117	179.33445	113.21117
2000.00000	112.20450	167.33317	112.20450
2050.00000	110.86609	172.47649	110.86609
2100.00000	112.76452	171.60389	112.76452
2150.00000	113.37577	160.32447	113.37577
2200.00000	113.21065	150.47736	113.21065
2250.00000	112.67053	143.08968	112.67053
2300.00000	112.64999	137.83987	112.64999
2350.00000	112.39843	131.29819	112.39843
2400.00000	112.12439	125.78411	112.12439
2450.00000	111.75800	119.51075	111.75800
2500.00000	111.40989	114.83371	111.40989
2550.00000	110.90572	109.35706	110.90572
2600.00000	110.32783	104.88076	110.32783
2650.00000	109.83845	101.63193	109.83845
2700.00000	109.26081	97.67947	109.26081
2750.00000	108.62637	94.80413	108.62637
2800.00000	107.90635	92.57840	107.90635
2850.00000	107.12487	90.66814	107.12487
2900.00000	106.45526	89.83889	106.45526
2950.00000	105.66082	89.12691	105.66082
3000.00000	104.75029	89.57305	104.75029
3050.00000	103.64571	91.92208	103.64571
3100.00000	102.78357	96.88711	102.78357
3150.00000	101.76469	103.91270	101.76469
3200.00000	101.31264	117.37244	101.31264
3250.00000	101.94415	130.30308	101.94415
3300.00000	103.12853	141.83677	103.12853
3350.00000	104.71198	151.01347	104.71198
3400.00000	106.90557	157.35222	106.90557
3450.00000	109.19317	158.27635	109.19317
3500.00000	111.44303	154.92201	111.44303
3550.00000	113.13060	148.95884	113.13060
3600.00000	114.65184	143.23733	114.65184
3650.00000	115.92132	136.06848	115.92132
3700.00000	117.05967	129.08955	117.05967
3750.00000	118.11642	121.30256	118.11642
3800.00000	118.99508	112.95032	118.99508
3850.00000	119.62647	105.04020	119.62647
3900.00000	120.23974	97.91863	120.23974
3950.00000	120.86710	90.77416	120.86710
4000.00000	121.45112	83.26003	121.45112
4050.00000	122.04112	75.88007	122.04112
4100.00000	122.64452	68.14367	122.64452
4150.00000	123.40575	59.56217	123.40575
4200.00000	123.82103	49.52952	123.82103
4250.00000	124.19346	39.03922	124.19346
4300.00000	124.32621	28.10748	124.32621
4350.00000	124.23629	17.36307	124.23629
4400.00000	123.97699	 7.53008	123.97699
4450.00000	123.61898	-1.59561	123.61898
4500.00000	123.23103	-9.94179	123.23103
4550.00000	122.82872	-18.00208	122.82872
4600.00000	122.37372	-25.73134	122.37372
4650.00000	121.95151	-33.24669	121.95151
4700.00000	121.44921	-41.20093	121.44921
4750.00000	120.76892	-49.33407	120.76892
4800.00000	119.89969	-57.09932	119.89969
4850.00000	118.77118	-63.52617	118.77118
4900.00000	117.52331	-67.86455	117.52331
4950.00000	116.32086	-69.77142	116.32086
5000.00000	115.21372	-70.20209	115.21372
5050.00000	114.36483	-69.85238	114.36483
5100.00000	113.42054	-66.07221	113.42054
5150.00000	113.54386	-61.65456	113.54386
5200.00000	113.26048	-57.19949	113.26048
5250.00000	114.99646	-54.22383	114.99646
5300.00000	115.76466	-65.08806	115.76466
5350.00000	115.31508	-72.75522	115.31508
5400.00000	114.77902	-76.75283	114.77902
5450.00000	114.36727	-79.32118	114.36727
5500.00000	114.07112	-81.44990	114.07112
5550.00000	113.84901	-83.48128	113.84901
5600.00000	113.66282	-85.37813	113.66282
5650.00000	113.49876	-87.24544	113.49876
5700.00000	113.34685	-89.41492	113.34685
5750.00000	113.23431	-91.28095	113.23431
5800.00000	113.12369	-93.21212	113.12369
5850.00000	113.05840	-95.14551	113.05840
5900.00000	113.04491	-97.07051	113.04491
5950.00000	113.05581	-99.20965	113.05581
6000.00000	113.07989	-101.53503	113.07989
6050.00000	113.08367	-104.14619	113.08367
6100.00000	113.07070	-107.07584	113.07070
6150.00000	113.02325	-110.09780	113.02325
6200.00000	112.94132	-112.95399	112.94132
6250.00000	112.87561	-115.72221	112.87561
6300.00000	112.81601	-118.43245	112.81601
6350.00000	112.72296	-121.24869	112.72296
6400.00000	112.63068	-123.77723	112.63068
6450.00000	112.58805	-126.43615	112.58805
6500.00000	112.50991	-129.21487	112.50991
6550.00000	112.42037	-131.76424	112.42037
6600.00000	112.34726	-134.23935	112.34726
6650.00000	112.28961	-136.85879	112.28961
6700.00000	112.27577	-139.50067	112.27577
6750.00000	112.22171	-142.17191	112.22171
6800.00000	112.18318	-144.76905	112.18318
6850.00000	112.16021	-147.46797	112.16021
6900.00000	112.12553	-150.07035	112.12553
6950.00000	112.10275	-152.74294	112.10275
7000.00000	112.09880	-155.65385	112.09880
7050.00000	112.06209	-158.48963	112.06209
7100.00000	112.06678	-161.42099	112.06678
7150.00000	112.03682	-164.28757	112.03682
7200.00000	112.03080	-167.36941	112.03080
7250.00000	111.97413	-170.60050	111.97413
7300.00000	111.98136	-173.73952	111.98136
7350.00000	111.92403	-176.95588	111.92403
7400.00000	111.89358	-180.28625	111.89358
7450.00000	111.85230	-183.69363	111.85230
7500.00000	111.79248	-187.20720	111.79248
7550.00000	111.73041	-190.62923	111.73041
7600.00000	111.63131	-194.12659	111.63131
7650.00000	111.55139	-197.65806	111.55139
7700.00000	111.49238	-201.17682	111.49238
7750.00000	111.33927	-204.83826	111.33927
7800.00000	111.20791	-208.38037	111.20791
7850.00000	111.05949	-211.92439	111.05949
7900.00000	110.91942	-215.44711	110.91942
7950.00000	110.76347	-218.97916	110.76347
8000.00000	110.60031	-222.54077	110.60031
8050.00000	110.41143	-226.40489	110.41143
8100.00000	110.22983	-229.40034	110.22983
8150.00000	109.96728	-232.83118	109.96728
8200.00000	109.75600	-235.88720	109.75600
8250.00000	109.48303	-239.30392	109.48303
8300.00000	109.23014	-242.39506	109.23014
8350.00000	108.92402	-245.31079	108.92402
8400.00000	108.62479	-248.78359	108.62479
8450.00000	108.23970	-251.81992	108.23970
8500.00000	107.87155	-254.98108	107.87155
8550.00000	107.55935	-257.73998	107.55935
8600.00000	107.22515	-260.84618	107.22515
8650.00000	106.88196	-263.64868	106.88196
8700.00000	106.59363	-266.81041	106.59363
8750.00000	106.23201	-268.28575	106.23201
8800.00000	105.96855	-270.78431	105.96855
8850.00000	105.66311	-272.66670	105.66311
8900.00000	105.39852	-274.27400	105.39852
8950.00000	105.09881	-276.33555	105.09881
9000.00000	104.71452	-277.97984	104.71452
9050.00000	104.42067	-280.21815	104.42067
9100.00000	104.08641	-281.94081	104.08641
9150.00000	103.79021	-283.96746	103.79021
9200.00000	103.54942	-286.05232	103.54942
9250.00000	103.26540	-288.33845	103.26540
9300.00000	103.08877	-290.30012	103.08877
9350.00000	102.96954	-292.07174	102.96954
9400.00000	102.74310	-293.42947	102.74310
9450.00000	102.63945	-294.47392	102.63945
9500.00000	102.52848	-294.69809	102.52848
9550.00000	102.51510	-295.11514	102.51510
9600.00000	102.46308	-296.71082	102.46308
9650.00000	102.26750	-298.24828	102.26750
9700.00000	102.02865	-299.26329	102.02865
9750.00000	101.87768	-301.70578	101.87768
9800.00000	101.64420	-303.28655	101.64420
9850.00000	101.48986	-304.92021	101.48986
9900.00000	101.25464	-307.18769	101.25464
9950.00000	101.15935	-308.58649	101.15935
10000.00000	101.07218	-310.74021	101.07218
10050.00000	100.95733	-312.22122	100.95733
10100.00000	100.83807	-313.32224	100.83807
10150.00000	100.59130	-315.11222	100.59130
10200.00000	100.40661	-316.64469	100.40661
10250.00000	100.16730	-318.51495	100.16730
10300.00000	100.05033	-320.42255	100.05033
10350.00000	99.80775	-322.45251	99.80775
10400.00000	99.58022	-324.94115	99.58022
10450.00000	99.54994	-327.60809	99.54994
10500.00000	99.51633	-329.83171	99.51633
10550.00000	99.47353	-332.12548	99.47353
10600.00000	99.38150	-333.79909	99.38150
10650.00000	99.28341	-335.14641	99.28341
10700.00000	99.18340	-337.41493	99.18340
10750.00000	99.07117	-339.09264	99.07117
10800.00000	98.85865	-340.54785	98.85865
10850.00000	98.65419	-343.39615	98.65419
10900.00000	98.50057	-345.35095	98.50057
10950.00000	98.33163	-347.37265	98.33163
11000.00000	98.17858	-349.49716	98.17858
11050.00000	97.86918	-351.51186	97.86918
11100.00000	97.69738	-353.89420	97.69738
11150.00000	97.40479	-355.56515	97.40479
11200.00000	97.23198	-357.23134	97.23198
11250.00000	96.92073	-359.31083	96.92073
11300.00000	96.57376	-361.11737	96.57376
11350.00000	96.29530	-362.60092	96.29530
11400.00000	95.94215	-364.31239	95.94215
11450.00000	95.65496	-366.37669	95.65496
11500.00000	95.52450	-367.32323	95.52450
11550.00000	95.22326	-368.49703	95.22326
11600.00000	95.08864	-370.17284	95.08864
11650.00000	94.87025	-370.26558	94.87025
11700.00000	94.66846	-371.07533	94.66846
11750.00000	94.54527	-372.16391	94.54527
11800.00000	94.37362	-373.59882	94.37362
11850.00000	94.30390	-373.49503	94.30390
11900.00000	93.98567	-374.84619	93.98567
11950.00000	93.89872	-375.75722	93.89872
12000.00000	93.66104	-376.48408	93.66104
12050.00000	93.45146	-376.99690	93.45146
12100.00000	93.36856	-378.84165	93.36856
12150.00000	93.18293	-380.32206	93.18293
12200.00000	93.13019	-381.89214	93.13019
12250.00000	93.04671	-382.89156	93.04671
12300.00000	93.98385	-384.32862	93.98385
12350.00000	92.77503	-385.65979	92.77503
12400.00000	92.57472	-385.65640	92.57472
12450.00000	92.41212	-386.78704	92.41212
12500.00000	92.17880	-388.40616	92.17880
12550.00000	92.06907	-390.00871	92.06907
12600.00000	91.82118	-391.97110	91.82118
12650.00000	91.80706	-392.76751	91.80706
12700.00000	91.50938	-393.94004	91.50938
12750.00000	91.37388	-395.17790	91.37388
12800.00000	91.16793	-395.94287	91.16793
12850.00000	90.65221	-397.03508	90.65221
12900.00000	90.48407	-398.12001	90.48407
12950.00000	90.36885	-398.84697	90.36885
13000.00000	90.09340	-401.13381	90.09340
13050.00000	89.86521	-400.47886	89.86521
13100.00000	89.51001	-401.79402	89.51001
13150.00000	89.49949	-402.83961	89.49949
13200.00000	89.10891	-401.03133	89.10891
13250.00000	88.86872	-402.32946	88.86872
13300.00000	88.69208	-400.40913	88.69208
13350.00000	88.42756	-400.40394	88.42756
13400.00000	88.28740	-401.14855	88.28740
13450.00000	87.96574	-400.05081	87.96574
13500.00000	87.93940	-398.45880	87.93940
13550.00000	87.64054	-398.74591	87.64054
13600.00000	87.60001	-397.14633	87.60001
13650.00000	87.48808	-396.44380	87.48808
13700.00000	87.24012	-394.90355	87.24012
13750.00000	86.98198	-394.27178	86.98198
13800.00000	86.72489	-395.86139	86.72489
13850.00000	86.83358	-397.44630	86.83358
13900.00000	86.78021	-396.09069	86.78021
13950.00000	86.98324	-393.51577	86.98324
14000.00000	87.05124	-391.35005	87.05124
14050.00000	87.08607	-389.60690	87.08607
14100.00000	86.80234	-389.07100	86.80234
14150.00000	86.94370	-389.26253	86.94370
14200.00000	87.20152	-387.82877	87.20152
14250.00000	87.73805	-386.10472	87.73805
14300.00000	87.79949	-384.74994	87.79949
14350.00000	87.91300	-381.65868	87.91300
14400.00000	87.74667	-381.64452	87.74667
14450.00000	87.79823	-379.55342	87.79823
14500.00000	88.01413	-379.54883	88.01413
14550.00000	88.36700	-379.16272	88.36700
14600.00000	88.61237	-379.00712	88.61237
14650.00000	89.12282	-377.21842	89.12282
14700.00000	89.41274	-380.54436	89.41274
14750.00000	89.64590	-378.66664	89.64590
14800.00000	89.77971	-377.97994	89.77971
14850.00000	90.24819	-378.45073	90.24819
14900.00000	90.75246	-378.94123	90.75246
14950.00000	91.17554	-378.39775	91.17554
15000.00000	91.51280	-378.96154	91.51280
15050.00000	91.70741	-377.79486	91.70741
15100.00000	92.08545	-377.25684	92.08545
15150.00000	92.46662	-378.44581	92.46662
15200.00000	92.82597	-378.38304	92.82597
15250.00000	93.06718	-379.62535	93.06718
15300.00000	93.60207	-380.32979	93.60207
15350.00000	93.95026	-382.38459	93.95026
15400.00000	94.31027	-381.69287	94.31027
15450.00000	94.69191	-382.83067	94.69191
15500.00000	95.21183	-384.04251	95.21183
15550.00000	95.66799	-385.67402	95.66799
15600.00000	95.99595	-387.38025	95.99595
15650.00000	96.58015	-387.20309	96.58015
15700.00000	96.93144	-390.23541	96.93144
15750.00000	97.49911	-391.80335	97.49911
15800.00000	97.91039	-392.98104	97.91039
15850.00000	98.28485	-394.91882	98.28485
15900.00000	98.65818	-397.74798	98.65818
15950.00000	99.04372	-400.53026	99.04372
16000.00000	99.54028	-402.93927	99.54028
16050.00000	100.02606	-405.39949	100.02606
16100.00000	100.20193	-408.24499	100.20193
16150.00000	100.45750	-411.37939	100.45750
16200.00000	100.87344	-415.04357	100.87344
16250.00000	101.17472	-418.05770	101.17472
16300.00000	101.65207	-421.20861	101.65207
16350.00000	101.89854	-424.15745	101.89854
16400.00000	102.08554	-426.90346	102.08554
16450.00000	102.29354	-430.09968	102.29354
16500.00000	102.50061	-433.32229	102.50061
16550.00000	102.78579	-437.14393	102.78579
16600.00000	102.98434	-440.17265	102.98434
16650.00000	103.16837	-443.06588	103.16837
16700.00000	103.36396	-445.63280	103.36396
16750.00000	103.44376	-449.39431	103.44376
16800.00000	103.62990	-452.46995	103.62990
16850.00000	103.85167	-455.73207	103.85167
16900.00000	104.04275	-459.00545	104.04275
16950.00000	104.20115	-461.93466	104.20115
17000.00000	104.17764	-465.28132	104.17764
17050.00000	104.39492	-467.53290	104.39492
17100.00000	104.39942	-469.63092	104.39942
17150.00000	104.66731	-473.50386	104.66731
17200.00000	104.82111	-476.39965	104.82111
17250.00000	104.84706	-479.99214	104.84706
17300.00000	105.06825	-482.71746	105.06825
17350.00000	105.03514	-485.51598	105.03514
17400.00000	105.18680	-488.45262	105.18680
17450.00000	105.24000	-491.97691	105.24000
17500.00000	105.38465	-494.95881	105.38465
17550.00000	105.49484	-497.78522	105.49484
17600.00000	105.69418	-500.24563	105.69418
17650.00000	105.74515	-504.21908	105.74515
17700.00000	105.79610	-507.42563	105.79610
17750.00000	106.01210	-509.81640	106.01210
17800.00000	105.98152	-513.66492	105.98152
17850.00000	106.09878	-516.31151	106.09878
17900.00000	106.16881	-519.54582	106.16881
17950.00000	106.29698	-522.81436	106.29698
18000.00000	106.35215	-526.67026	106.35215
18050.00000	106.55571	-529.40356	106.55571
18100.00000	106.52982	-533.19974	106.52982
18150.00000	106.57333	-536.00823	106.57333
18200.00000	106.56895	-539.63846	106.56895
18250.00000	106.65389	-542.44810	106.65389
18300.00000	106.75652	-545.58357	106.75652
18350.00000	106.78499	-549.00381	106.78499
18400.00000	106.76406	-552.69776	106.76406
18450.00000	106.73245	-557.12128	106.73245
18500.00000	106.73613	-560.26401	106.73613
18550.00000	106.72327	-563.13905	106.72327
18600.00000	106.77240	-567.10509	106.77240
18650.00000	106.61349	-570.12152	106.61349
18700.00000	106.56813	-573.78281	106.56813
18750.00000	106.56340	-576.87014	106.56340
18800.00000	106.61500	-579.71117	106.61500
18850.00000	106.43054	-583.15416	106.43054
18900.00000	106.32230	-586.06841	106.32230
18950.00000	106.28745	-589.58701	106.28745
19000.00000	106.06511	-592.02869	106.06511
19050.00000	106.12325	-595.11362	106.12325
19100.00000	105.99045	-597.82345	105.99045
19150.00000	106.04804	-600.52804	106.04804
19200.00000	105.94988	-602.99536	105.94988
19250.00000	105.83841	-606.78496	105.83841
19300.00000	105.70949	-608.90383	105.70949
19350.00000	105.66805	-611.67116	105.66805
19400.00000	105.57681	-614.21253	105.57681
19450.00000	105.61027	-616.27831	105.61027
19500.00000	105.44087	-619.72557	105.44087
19550.00000	105.42903	-622.34760	105.42903
19600.00000	105.41146	-625.51058	105.41146
19650.00000	105.28955	-627.70125	105.28955
19700.00000	105.11936	-630.64093	105.11936
19750.00000	105.02543	-632.82026	105.02543
19800.00000	105.05307	-636.26863	105.05307
19850.00000	105.00360	-638.54760	105.00360
19900.00000	104.87496	-642.03656	104.87496
19950.00000	104.76195	-644.42295	104.76195
20000.00000	104.67072	-647.17619	104.67072
20050.00000	104.59539	-649.71103	104.59539
20100.00000	104.39878	-652.48036	104.39878
20150.00000	104.35182	-654.25865	104.35182
20200.00000	104.19901	-657.37137	104.19901
20250.00000	104.02449	-659.72566	104.02449
20300.00000	103.83035	-662.24766	103.83035
20350.00000	103.76304	-664.77280	103.76304
20400.00000	103.55441	-666.28582	103.55441
20450.00000	103.34008	-668.58506	103.34008
20500.00000	103.25066	-671.06497	103.25066
20550.00000	102.86381	-672.28235	102.86381
20600.00000	102.79374	-673.88579	102.79374
20650.00000	102.62888	-675.48992	102.62888
20700.00000	102.42175	-676.93503	102.42175
20750.00000	102.32842	-678.25039	102.32842
20800.00000	102.14942	-679.06272	102.14942
20850.00000	102.09211	-680.30417	102.09211
20900.00000	101.95192	-681.08396	101.95192
20950.00000	101.86252	-681.36602	101.86252
21000.00000	101.82841	-681.93601	101.82841
21050.00000	101.96432	-682.31264	101.96432
21100.00000	101.98308	-682.70436	101.98308
21150.00000	102.13465	-683.56756	102.13465
21200.00000	102.29953	-684.23846	102.29953
21250.00000	102.43192	-686.48063	102.43192
21300.00000	102.65863	-687.32320	102.65863
21350.00000	102.81492	-688.84139	102.81492
21400.00000	102.96702	-691.07935	102.96702
21450.00000	103.16020	-693.21865	103.16020
21500.00000	103.30677	-695.84974	103.30677
21550.00000	103.34188	-697.90707	103.34188
21600.00000	103.52808	-700.79737	103.52808
21650.00000	103.56585	-703.60561	103.56585
21700.00000	103.61862	-705.91351	103.61862
21750.00000	103.66963	-708.66003	103.66963
21800.00000	103.69417	-711.40151	103.69417
21850.00000	103.63182	-713.71065	103.63182
21900.00000	103.68110	-716.24142	103.68110
21950.00000	103.63580	-718.52111	103.63580
22000.00000	103.68074	-720.82670	103.68074
22050.00000	103.63531	-722.95565	103.63531
22100.00000	103.64430	-725.41127	103.64430
22150.00000	103.58801	-727.53673	103.58801
22200.00000	103.63188	-729.69378	103.63188
22250.00000	103.59101	-731.47217	103.59101
22300.00000	103.45711	-733.91804	103.45711
22350.00000	103.60634	-736.34945	103.60634
22400.00000	103.63688	-738.61829	103.63688
22450.00000	103.56999	-740.73612	103.56999
22500.00000	103.52542	-741.89810	103.52542
22550.00000	103.52184	-744.66352	103.52184
22600.00000	103.55957	-747.57090	103.55957
22650.00000	103.58454	-749.87542	103.58454
22700.00000	103.54139	-751.78780	103.54139
22750.00000	103.51536	-752.44914	103.51536
