---ACOUSTIC CALIBRATION---
Filename: C:\Data\AZH DATA\AZH32\RightPrimary.calib
Date: 8/27/2019 1:12:16 PM
Format: 4
Probe Tube Correction File: C:\Data\Probe Tube Calibrations\50_ProbeTube.calib
Experiment VIs: 850
EPL_CFTS.exe V12.0.1 (2012)
DAQmx V9.6

Attenuation (dB): 40.000000
Min Freq (Hz): 50.000000
Max Freq (Hz): 49950.000000
Freq Step (Hz): 50.000000
Sample Rate (Hz): 100000.000000
[Smoothing]
Method=None
MA.Iterations=0
MA.Length=0
Loess.Length=0
Loess.Type=Linear
Loess.Robust=FALSE


Freq(Hz)	Mag(dB)	Phase(deg)	Unsmoothed(dB)

50.00000	100.80088	357.82534	100.80088
100.00000	73.19468	410.97643	73.19468
150.00000	80.03800	502.24009	80.03800
200.00000	77.85555	376.26797	77.85555
250.00000	81.83047	471.27263	81.83047
300.00000	80.46536	402.10856	80.46536
350.00000	77.99749	375.66858	77.99749
400.00000	85.94509	417.48412	85.94509
450.00000	86.16215	371.41885	86.16215
500.00000	91.18384	348.02006	91.18384
550.00000	91.33294	363.41962	91.33294
600.00000	93.89260	360.02877	93.89260
650.00000	96.95311	347.44460	96.95311
700.00000	98.20463	329.80717	98.20463
750.00000	100.47989	315.03500	100.47989
800.00000	101.19280	289.36917	101.19280
850.00000	100.42436	273.05008	100.42436
900.00000	98.68239	256.49133	98.68239
950.00000	96.64465	257.55768	96.64465
1000.00000	95.24284	260.10463	95.24284
1050.00000	93.33669	279.41147	93.33669
1100.00000	96.25945	298.85546	96.25945
1150.00000	99.01649	299.96219	99.01649
1200.00000	101.82170	297.27985	101.82170
1250.00000	103.07181	288.75714	103.07181
1300.00000	104.86701	283.14430	104.86701
1350.00000	105.93318	273.17604	105.93318
1400.00000	106.84786	267.84377	106.84786
1450.00000	107.80030	260.73566	107.80030
1500.00000	108.85258	253.76000	108.85258
1550.00000	109.71664	244.61446	109.71664
1600.00000	111.04201	234.80133	111.04201
1650.00000	111.90849	217.32163	111.90849
1700.00000	110.59904	207.91033	110.59904
1750.00000	110.37433	202.63128	110.37433
1800.00000	109.91842	198.00146	109.91842
1850.00000	110.19609	198.53070	110.19609
1900.00000	111.46331	193.64032	111.46331
1950.00000	112.05231	180.17484	112.05231
2000.00000	110.96473	168.90380	110.96473
2050.00000	109.94400	175.13928	109.94400
2100.00000	111.81491	172.44030	111.81491
2150.00000	112.25134	161.10585	112.25134
2200.00000	112.17236	151.31849	112.17236
2250.00000	111.53074	144.33517	111.53074
2300.00000	111.62285	139.12409	111.62285
2350.00000	111.32927	132.49626	111.32927
2400.00000	111.03339	127.30299	111.03339
2450.00000	110.68598	120.48081	110.68598
2500.00000	110.27317	115.52518	110.27317
2550.00000	109.81982	109.97011	109.81982
2600.00000	109.19947	105.89530	109.19947
2650.00000	108.64105	102.27577	108.64105
2700.00000	108.06435	98.57777	108.06435
2750.00000	107.38921	95.35482	107.38921
2800.00000	106.62436	93.09102	106.62436
2850.00000	105.85923	91.54043	105.85923
2900.00000	105.07558	90.08293	105.07558
2950.00000	104.20741	90.33762	104.20741
3000.00000	103.21889	91.11195	103.21889
3050.00000	101.83601	93.38942	101.83601
3100.00000	100.68402	102.40480	100.68402
3150.00000	99.81549	114.36982	99.81549
3200.00000	100.30779	128.91251	100.30779
3250.00000	101.19468	140.22505	101.19468
3300.00000	102.79157	150.38709	102.79157
3350.00000	104.63890	156.86149	104.63890
3400.00000	106.73844	160.74448	106.73844
3450.00000	108.93621	159.92298	108.93621
3500.00000	110.96518	155.92145	110.96518
3550.00000	112.55717	149.63746	112.55717
3600.00000	113.96505	143.93805	113.96505
3650.00000	115.16523	137.04642	115.16523
3700.00000	116.31322	130.23707	116.31322
3750.00000	117.32973	122.43631	117.32973
3800.00000	118.16027	113.95295	118.16027
3850.00000	118.75731	106.10397	118.75731
3900.00000	119.32915	99.01692	119.32915
3950.00000	119.92069	91.92466	119.92069
4000.00000	120.49266	84.62996	120.49266
4050.00000	121.05866	77.39186	121.05866
4100.00000	121.66428	69.69933	121.66428
4150.00000	122.39937	61.20066	122.39937
4200.00000	122.79616	51.30060	122.79616
4250.00000	123.12747	41.05404	123.12747
4300.00000	123.25217	30.41370	123.25217
4350.00000	123.15987	19.96738	123.15987
4400.00000	122.91754	10.46216	122.91754
4450.00000	122.59771	 1.51867	122.59771
4500.00000	122.23727	-6.61773	122.23727
4550.00000	121.87816	-14.58708	121.87816
4600.00000	121.46790	-22.28931	121.46790
4650.00000	121.08011	-29.87016	121.08011
4700.00000	120.59715	-38.09859	120.59715
4750.00000	119.92688	-46.33569	119.92688
4800.00000	119.03049	-54.17747	119.03049
4850.00000	117.88839	-60.61926	117.88839
4900.00000	116.64499	-64.80488	116.64499
4950.00000	115.46840	-66.69969	115.46840
5000.00000	114.49615	-66.99684	114.49615
5050.00000	113.52147	-67.03155	113.52147
5100.00000	112.57855	-62.77712	112.57855
5150.00000	112.76692	-58.91804	112.76692
5200.00000	112.61320	-53.91511	112.61320
5250.00000	114.30889	-53.41130	114.30889
5300.00000	114.78091	-63.84451	114.78091
5350.00000	114.33659	-70.41664	114.33659
5400.00000	113.85979	-74.16140	113.85979
5450.00000	113.49109	-76.74213	113.49109
5500.00000	113.19150	-78.98541	113.19150
5550.00000	112.94844	-81.04108	112.94844
5600.00000	112.74883	-83.09678	112.74883
5650.00000	112.57016	-85.14860	112.57016
5700.00000	112.41511	-87.07788	112.41511
5750.00000	112.28351	-88.91432	112.28351
5800.00000	112.15367	-90.81915	112.15367
5850.00000	112.09284	-92.69760	112.09284
5900.00000	112.09373	-94.62191	112.09373
5950.00000	112.11015	-96.91998	112.11015
6000.00000	112.13949	-99.30127	112.13949
6050.00000	112.09180	-102.27340	112.09180
6100.00000	112.06194	-105.00119	112.06194
6150.00000	111.97589	-107.97367	111.97589
6200.00000	111.88608	-110.62861	111.88608
6250.00000	111.77946	-113.45606	111.77946
6300.00000	111.70301	-116.21399	111.70301
6350.00000	111.57361	-118.95768	111.57361
6400.00000	111.45510	-121.41730	111.45510
6450.00000	111.37623	-124.00355	111.37623
6500.00000	111.26424	-126.51247	111.26424
6550.00000	111.15791	-128.88312	111.15791
6600.00000	111.10071	-131.42417	111.10071
6650.00000	111.00801	-133.73953	111.00801
6700.00000	110.94298	-136.28140	110.94298
6750.00000	110.88046	-138.66643	110.88046
6800.00000	110.83572	-140.96584	110.83572
6850.00000	110.79725	-143.46471	110.79725
6900.00000	110.76184	-146.08763	110.76184
6950.00000	110.70151	-148.49468	110.70151
7000.00000	110.70997	-151.11370	110.70997
7050.00000	110.65488	-153.99998	110.65488
7100.00000	110.60843	-156.74502	110.60843
7150.00000	110.56596	-159.48629	110.56596
7200.00000	110.53777	-162.32870	110.53777
7250.00000	110.45547	-165.29418	110.45547
7300.00000	110.45552	-168.23996	110.45552
7350.00000	110.36523	-171.07525	110.36523
7400.00000	110.32682	-174.17377	110.32682
7450.00000	110.24677	-177.33024	110.24677
7500.00000	110.16761	-180.53979	110.16761
7550.00000	110.10563	-183.61491	110.10563
7600.00000	109.98679	-186.87509	109.98679
7650.00000	109.86542	-190.08864	109.86542
7700.00000	109.78118	-193.07218	109.78118
7750.00000	109.59975	-196.19634	109.59975
7800.00000	109.45171	-199.22512	109.45171
7850.00000	109.29766	-202.16552	109.29766
7900.00000	109.12994	-204.84232	109.12994
7950.00000	108.96472	-207.86242	108.96472
8000.00000	108.80443	-210.62031	108.80443
8050.00000	108.63640	-213.78615	108.63640
8100.00000	108.48972	-216.00458	108.48972
8150.00000	108.28373	-218.60083	108.28373
8200.00000	108.12590	-220.93776	108.12590
8250.00000	107.95502	-223.49550	107.95502
8300.00000	107.77567	-225.91765	107.77567
8350.00000	107.58218	-228.15108	107.58218
8400.00000	107.42914	-230.91604	107.42914
8450.00000	107.17596	-233.40988	107.17596
8500.00000	106.95873	-235.89444	106.95873
8550.00000	106.78831	-238.39288	106.78831
8600.00000	106.59049	-241.38542	106.59049
8650.00000	106.36742	-243.92948	106.36742
8700.00000	106.21618	-247.26927	106.21618
8750.00000	105.97764	-248.75978	105.97764
8800.00000	105.79951	-251.62928	105.79951
8850.00000	105.57834	-253.94822	105.57834
8900.00000	105.37776	-255.83794	105.37776
8950.00000	105.16237	-258.08871	105.16237
9000.00000	104.86188	-259.82135	104.86188
9050.00000	104.65929	-261.94260	104.65929
9100.00000	104.42544	-263.76363	104.42544
9150.00000	104.20014	-265.43661	104.20014
9200.00000	104.07772	-267.72331	104.07772
9250.00000	103.87200	-270.05539	103.87200
9300.00000	103.78393	-272.14808	103.78393
9350.00000	103.74321	-274.52716	103.74321
9400.00000	103.60602	-275.83127	103.60602
9450.00000	103.57505	-277.45676	103.57505
9500.00000	103.60569	-277.97099	103.60569
9550.00000	103.71190	-279.40718	103.71190
9600.00000	103.71724	-281.50425	103.71724
9650.00000	103.61229	-283.79386	103.61229
9700.00000	103.49507	-285.24442	103.49507
9750.00000	103.39147	-288.12480	103.39147
9800.00000	103.18887	-290.07381	103.18887
9850.00000	103.04514	-292.09554	103.04514
9900.00000	102.76064	-294.96913	102.76064
9950.00000	102.62115	-296.80686	102.62115
10000.00000	102.54048	-299.50050	102.54048
10050.00000	102.40750	-301.46427	102.40750
10100.00000	102.24893	-303.40252	102.24893
10150.00000	102.01800	-305.58217	102.01800
10200.00000	101.86522	-307.35648	101.86522
10250.00000	101.64883	-309.50053	101.64883
10300.00000	101.58551	-311.59554	101.58551
10350.00000	101.36310	-313.70064	101.36310
10400.00000	101.16104	-316.10835	101.16104
10450.00000	101.09584	-318.72110	101.09584
10500.00000	101.03786	-321.12435	101.03786
10550.00000	100.96646	-323.57169	100.96646
10600.00000	100.89217	-325.68254	100.89217
10650.00000	100.78276	-327.46233	100.78276
10700.00000	100.69696	-330.06792	100.69696
10750.00000	100.61893	-332.23808	100.61893
10800.00000	100.43753	-334.11804	100.43753
10850.00000	100.26290	-337.04867	100.26290
10900.00000	100.11418	-339.15788	100.11418
10950.00000	99.96225	-341.14167	99.96225
11000.00000	99.78816	-343.43024	99.78816
11050.00000	99.46836	-345.57592	99.46836
11100.00000	99.29595	-348.19974	99.29595
11150.00000	98.99835	-350.07875	98.99835
11200.00000	98.82236	-351.88351	98.82236
11250.00000	98.48863	-354.25753	98.48863
11300.00000	98.17966	-356.26443	98.17966
11350.00000	97.89900	-357.85560	97.89900
11400.00000	97.51313	-359.57272	97.51313
11450.00000	97.26966	-361.94516	97.26966
11500.00000	97.12926	-362.70404	97.12926
11550.00000	96.80975	-363.76937	96.80975
11600.00000	96.69061	-365.47830	96.69061
11650.00000	96.46748	-365.42279	96.46748
11700.00000	96.31264	-366.39001	96.31264
11750.00000	96.15958	-367.31101	96.15958
11800.00000	96.02700	-368.72437	96.02700
11850.00000	95.96664	-368.90733	95.96664
11900.00000	95.68585	-370.52405	95.68585
11950.00000	95.60723	-371.11588	95.60723
12000.00000	95.46564	-371.64725	95.46564
12050.00000	95.33846	-372.33730	95.33846
12100.00000	95.23997	-374.27784	95.23997
12150.00000	95.14621	-375.96124	95.14621
12200.00000	95.13998	-377.38787	95.13998
12250.00000	95.13241	-378.60574	95.13241
12300.00000	96.23485	-380.53472	96.23485
12350.00000	95.05475	-381.80351	95.05475
12400.00000	94.95400	-382.48506	94.95400
12450.00000	94.85024	-383.72988	94.85024
12500.00000	94.72846	-386.05970	94.72846
12550.00000	94.57207	-388.11357	94.57207
12600.00000	94.40288	-390.43792	94.40288
12650.00000	94.44692	-392.40170	94.44692
12700.00000	94.22938	-394.42711	94.22938
12750.00000	94.10730	-396.30197	94.10730
12800.00000	93.86868	-397.93051	93.86868
12850.00000	93.44584	-399.28228	93.44584
12900.00000	93.22741	-401.88134	93.22741
12950.00000	93.01614	-403.98033	93.01614
13000.00000	92.82388	-406.67100	92.82388
13050.00000	92.58668	-406.88926	92.58668
13100.00000	92.23965	-408.25446	92.23965
13150.00000	92.03351	-409.87234	92.03351
13200.00000	91.60574	-409.40685	91.60574
13250.00000	91.31820	-409.82348	91.31820
13300.00000	91.00699	-408.89649	91.00699
13350.00000	90.74614	-410.72726	90.74614
13400.00000	90.63490	-411.10716	90.63490
13450.00000	90.20046	-409.53958	90.20046
13500.00000	90.02741	-407.36770	90.02741
13550.00000	89.59107	-408.25830	89.59107
13600.00000	89.52530	-406.96343	89.52530
13650.00000	89.37152	-407.39324	89.37152
13700.00000	89.05792	-407.01885	89.05792
13750.00000	88.94716	-406.55753	88.94716
13800.00000	88.76612	-406.99670	88.76612
13850.00000	88.66178	-406.57085	88.66178
13900.00000	88.35752	-404.99627	88.35752
13950.00000	88.37013	-404.17705	88.37013
14000.00000	88.68735	-401.88139	88.68735
14050.00000	88.77427	-401.49834	88.77427
14100.00000	88.88639	-400.00497	88.88639
14150.00000	89.05835	-399.03045	89.05835
14200.00000	89.21339	-397.34489	89.21339
14250.00000	89.62668	-394.54876	89.62668
14300.00000	89.69356	-394.53857	89.69356
14350.00000	89.98449	-392.60566	89.98449
14400.00000	89.92139	-393.21126	89.92139
14450.00000	90.24097	-391.68378	90.24097
14500.00000	90.48804	-392.98881	90.48804
14550.00000	90.90409	-392.17615	90.90409
14600.00000	91.06069	-393.52076	91.06069
14650.00000	91.58041	-392.38026	91.58041
14700.00000	91.84704	-396.91892	91.84704
14750.00000	92.18801	-396.89995	92.18801
14800.00000	92.43295	-396.98031	92.43295
14850.00000	92.91272	-397.62795	92.91272
14900.00000	93.32811	-398.68763	93.32811
14950.00000	93.65915	-400.61354	93.65915
15000.00000	93.96620	-402.57062	93.96620
15050.00000	94.06279	-402.44441	94.06279
15100.00000	94.39762	-403.50036	94.39762
15150.00000	94.75496	-406.52435	94.75496
15200.00000	94.91275	-407.23013	94.91275
15250.00000	95.01317	-410.60186	95.01317
15300.00000	95.48129	-411.98407	95.48129
15350.00000	95.57828	-414.97727	95.57828
15400.00000	95.63431	-415.74923	95.63431
15450.00000	95.80592	-418.25239	95.80592
15500.00000	96.05604	-420.29219	96.05604
15550.00000	96.25960	-422.64492	96.25960
15600.00000	96.38422	-424.83065	96.38422
15650.00000	96.71138	-424.77897	96.71138
15700.00000	96.71627	-428.07927	96.71627
15750.00000	97.00862	-429.55196	97.00862
15800.00000	97.18775	-430.61525	97.18775
15850.00000	97.36882	-432.71531	97.36882
15900.00000	97.46471	-435.48988	97.46471
15950.00000	97.66891	-437.22566	97.66891
16000.00000	97.80477	-439.35756	97.80477
16050.00000	98.07285	-440.76248	98.07285
16100.00000	98.00380	-443.15483	98.00380
16150.00000	98.13842	-445.30382	98.13842
16200.00000	98.36521	-448.11690	98.36521
16250.00000	98.55532	-449.53735	98.55532
16300.00000	98.84630	-451.87274	98.84630
16350.00000	98.93154	-453.90492	98.93154
16400.00000	99.10731	-455.51830	99.10731
16450.00000	99.22560	-457.55698	99.22560
16500.00000	99.37889	-459.85245	99.37889
16550.00000	99.60785	-462.66257	99.60785
16600.00000	99.79149	-464.84215	99.79149
16650.00000	99.94438	-467.08285	99.94438
16700.00000	100.18618	-469.29846	100.18618
16750.00000	100.23371	-472.26019	100.23371
16800.00000	100.45265	-475.27300	100.45265
16850.00000	100.63815	-478.22273	100.63815
16900.00000	100.82996	-481.02762	100.82996
16950.00000	100.95479	-484.05174	100.95479
17000.00000	100.96190	-487.08849	100.96190
17050.00000	101.12152	-489.08843	101.12152
17100.00000	101.05393	-491.30520	101.05393
17150.00000	101.29817	-495.11645	101.29817
17200.00000	101.37881	-497.81602	101.37881
17250.00000	101.36850	-501.15621	101.36850
17300.00000	101.48701	-503.76684	101.48701
17350.00000	101.43876	-506.46827	101.43876
17400.00000	101.55981	-509.66643	101.55981
17450.00000	101.46770	-512.81068	101.46770
17500.00000	101.52295	-515.76362	101.52295
17550.00000	101.52576	-518.50078	101.52576
17600.00000	101.59735	-521.17638	101.59735
17650.00000	101.59244	-524.57212	101.59244
17700.00000	101.51694	-527.57185	101.51694
17750.00000	101.60674	-529.82962	101.60674
17800.00000	101.45349	-533.21402	101.45349
17850.00000	101.41706	-535.60434	101.41706
17900.00000	101.35708	-538.41745	101.35708
17950.00000	101.35957	-541.47904	101.35957
18000.00000	101.31482	-544.32053	101.31482
18050.00000	101.33647	-546.43797	101.33647
18100.00000	101.19753	-549.37599	101.19753
18150.00000	101.09826	-551.40583	101.09826
18200.00000	100.97692	-554.51608	100.97692
18250.00000	100.95112	-555.87532	100.95112
18300.00000	100.91083	-558.28307	100.91083
18350.00000	100.83073	-560.54462	100.83073
18400.00000	100.69985	-562.82586	100.69985
18450.00000	100.57843	-565.91084	100.57843
18500.00000	100.50347	-567.82674	100.50347
18550.00000	100.43036	-569.42572	100.43036
18600.00000	100.45286	-571.45990	100.45286
18650.00000	100.29306	-573.16824	100.29306
18700.00000	100.20985	-575.27594	100.20985
18750.00000	100.19972	-577.11716	100.19972
18800.00000	100.32217	-578.49745	100.32217
18850.00000	100.13768	-580.35621	100.13768
18900.00000	100.10795	-581.66229	100.10795
18950.00000	100.14083	-583.72418	100.14083
19000.00000	99.96793	-585.18019	99.96793
19050.00000	100.14108	-587.14065	100.14108
19100.00000	100.11032	-588.38133	100.11032
19150.00000	100.25399	-590.13200	100.25399
19200.00000	100.24659	-591.22712	100.24659
19250.00000	100.30839	-594.07957	100.30839
19300.00000	100.29694	-595.48279	100.29694
19350.00000	100.36438	-596.94883	100.36438
19400.00000	100.38542	-598.93972	100.38542
19450.00000	100.53919	-599.96044	100.53919
19500.00000	100.50365	-602.73053	100.50365
19550.00000	100.59740	-604.61757	100.59740
19600.00000	100.73990	-606.94554	100.73990
19650.00000	100.77443	-608.67790	100.77443
19700.00000	100.76011	-610.84477	100.76011
19750.00000	100.83175	-612.33297	100.83175
19800.00000	101.00549	-615.35071	101.00549
19850.00000	101.08962	-617.31620	101.08962
19900.00000	101.14698	-620.24722	101.14698
19950.00000	101.19250	-622.38241	101.19250
20000.00000	101.28217	-624.77395	101.28217
20050.00000	101.37482	-627.18880	101.37482
20100.00000	101.35710	-629.84954	101.35710
20150.00000	101.47993	-631.49044	101.47993
20200.00000	101.48189	-634.82105	101.48189
20250.00000	101.48694	-637.20045	101.48694
20300.00000	101.39169	-639.99232	101.39169
20350.00000	101.50739	-642.67607	101.50739
20400.00000	101.42542	-644.45108	101.42542
20450.00000	101.33882	-647.18295	101.33882
20500.00000	101.37169	-649.89750	101.37169
20550.00000	101.12192	-651.58143	101.12192
20600.00000	101.15121	-653.65879	101.15121
20650.00000	101.07966	-655.80030	101.07966
20700.00000	100.95992	-657.63291	100.95992
20750.00000	100.95628	-659.40711	100.95628
20800.00000	100.84150	-660.71783	100.84150
20850.00000	100.85212	-662.35964	100.85212
20900.00000	100.74146	-663.75131	100.74146
20950.00000	100.70470	-664.37915	100.70470
21000.00000	100.72086	-665.41156	100.72086
21050.00000	100.90686	-666.19404	100.90686
21100.00000	100.95830	-666.88564	100.95830
21150.00000	101.13178	-668.23574	101.13178
21200.00000	101.32390	-669.15254	101.32390
21250.00000	101.50828	-671.83374	101.50828
21300.00000	101.74799	-672.92253	101.74799
21350.00000	101.93636	-674.67206	101.93636
21400.00000	102.10093	-677.37167	102.10093
21450.00000	102.31443	-679.84475	102.31443
21500.00000	102.50795	-682.79754	102.50795
21550.00000	102.54446	-685.14428	102.54446
21600.00000	102.74085	-688.29098	102.74085
21650.00000	102.79407	-691.54026	102.79407
21700.00000	102.84829	-694.16453	102.84829
21750.00000	102.88807	-697.21210	102.88807
21800.00000	102.93395	-700.26572	102.93395
21850.00000	102.87008	-703.01780	102.87008
21900.00000	102.87999	-705.90036	102.87999
21950.00000	102.83996	-708.30068	102.83996
22000.00000	102.85455	-711.04070	102.85455
22050.00000	102.80435	-713.20934	102.80435
22100.00000	102.71475	-715.89002	102.71475
22150.00000	102.67364	-718.41365	102.67364
22200.00000	102.70554	-720.65703	102.70554
22250.00000	102.62130	-722.76415	102.62130
22300.00000	102.46132	-725.28244	102.46132
22350.00000	102.53969	-727.49392	102.53969
22400.00000	102.53631	-730.02886	102.53631
22450.00000	102.40191	-731.94102	102.40191
22500.00000	102.34953	-733.10575	102.34953
22550.00000	102.29926	-735.75136	102.29926
22600.00000	102.25185	-738.55624	102.25185
22650.00000	102.21117	-740.84213	102.21117
22700.00000	102.17026	-742.63551	102.17026
22750.00000	102.07405	-743.12437	102.07405
