---ACOUSTIC CALIBRATION---
Filename: C:\Data\AZH DATA\AZH62\RightSecondary.calib
Date: 8/27/2019 4:14:43 PM
Format: 4
Probe Tube Correction File: C:\Data\Probe Tube Calibrations\50_ProbeTube.calib
Experiment VIs: 850
EPL_CFTS.exe V12.0.1 (2012)
DAQmx V9.6

Attenuation (dB): 40.000000
Min Freq (Hz): 50.000000
Max Freq (Hz): 49950.000000
Freq Step (Hz): 50.000000
Sample Rate (Hz): 100000.000000
[Smoothing]
Method=None
MA.Iterations=0
MA.Length=0
Loess.Length=0
Loess.Type=Linear
Loess.Robust=FALSE


Freq(Hz)	Mag(dB)	Phase(deg)	Unsmoothed(dB)

50.00000	98.45605	405.58968	98.45605
100.00000	76.60912	480.03872	76.60912
150.00000	66.15955	656.58517	66.15955
200.00000	60.19833	477.70907	60.19833
250.00000	65.01361	373.24897	65.01361
300.00000	83.27349	259.25136	83.27349
350.00000	73.83405	294.54493	73.83405
400.00000	78.98091	275.54962	78.98091
450.00000	75.96052	270.25554	75.96052
500.00000	79.66756	277.96306	79.66756
550.00000	79.35019	277.69866	79.35019
600.00000	83.39529	270.48245	83.39529
650.00000	82.44311	267.08821	82.44311
700.00000	84.81551	251.47251	84.81551
750.00000	84.73719	255.30345	84.73719
800.00000	87.90557	242.35863	87.90557
850.00000	88.81472	242.79572	88.81472
900.00000	90.50751	221.40309	90.50751
950.00000	91.00395	211.97536	91.00395
1000.00000	91.39131	199.59196	91.39131
1050.00000	90.15538	188.23575	90.15538
1100.00000	90.10737	180.60487	90.10737
1150.00000	89.14044	168.29732	89.14044
1200.00000	87.29367	169.18005	87.29367
1250.00000	88.48039	157.46781	88.48039
1300.00000	85.50313	149.88238	85.50313
1350.00000	86.29809	151.19855	86.29809
1400.00000	84.84655	137.54405	84.84655
1450.00000	85.84502	151.56762	85.84502
1500.00000	84.05159	138.03324	84.05159
1550.00000	85.97190	151.07712	85.97190
1600.00000	87.06349	138.66998	87.06349
1650.00000	87.66328	136.91717	87.66328
1700.00000	86.12228	128.24917	86.12228
1750.00000	85.79105	133.18105	85.79105
1800.00000	85.61103	125.88530	85.61103
1850.00000	84.80664	131.98775	84.80664
1900.00000	86.40221	127.21655	86.40221
1950.00000	86.20165	124.97243	86.20165
2000.00000	87.75240	123.63806	87.75240
2050.00000	85.03009	113.70486	85.03009
2100.00000	85.05834	110.23289	85.05834
2150.00000	84.64573	104.68926	84.64573
2200.00000	84.25998	114.77004	84.25998
2250.00000	83.64696	97.93994	83.64696
2300.00000	82.67630	114.45681	82.67630
2350.00000	83.48890	96.20422	83.48890
2400.00000	81.83204	96.09850	81.83204
2450.00000	83.08152	98.91745	83.08152
2500.00000	80.49283	102.68564	80.49283
2550.00000	82.53852	101.99054	82.53852
2600.00000	81.51269	99.76607	81.51269
2650.00000	82.34175	119.36956	82.34175
2700.00000	82.83993	122.16312	82.83993
2750.00000	85.46155	118.39074	85.46155
2800.00000	85.39479	109.53631	85.39479
2850.00000	85.65218	99.15706	85.65218
2900.00000	85.25360	92.37078	85.25360
2950.00000	84.63541	91.16818	84.63541
3000.00000	84.15349	89.99153	84.15349
3050.00000	83.89573	85.10173	83.89573
3100.00000	83.34808	82.49260	83.34808
3150.00000	82.97595	79.71783	82.97595
3200.00000	82.06563	78.50356	82.06563
3250.00000	81.74492	77.79751	81.74492
3300.00000	80.67756	78.64242	80.67756
3350.00000	79.60793	82.10991	79.60793
3400.00000	79.19574	91.35001	79.19574
3450.00000	79.16821	101.82709	79.16821
3500.00000	80.78200	104.43224	80.78200
3550.00000	80.65079	109.84806	80.65079
3600.00000	80.15340	110.19674	80.15340
3650.00000	81.31007	111.45280	81.31007
3700.00000	81.55668	119.69891	81.55668
3750.00000	82.13010	126.93678	82.13010
3800.00000	83.90956	134.10956	83.90956
3850.00000	84.91740	136.29705	84.91740
3900.00000	86.84795	138.44807	86.84795
3950.00000	88.09598	136.05759	88.09598
4000.00000	89.11142	133.18710	89.11142
4050.00000	90.39000	128.67694	90.39000
4100.00000	91.00373	124.21433	91.00373
4150.00000	92.03417	120.48151	92.03417
4200.00000	92.76151	118.51080	92.76151
4250.00000	93.30875	113.88686	93.30875
4300.00000	94.12282	113.51641	94.12282
4350.00000	94.59959	111.74247	94.59959
4400.00000	95.74502	110.39905	95.74502
4450.00000	97.06215	108.82176	97.06215
4500.00000	98.35728	105.97273	98.35728
4550.00000	99.94055	100.87470	99.94055
4600.00000	101.39869	94.77844	101.39869
4650.00000	102.82098	86.52268	102.82098
4700.00000	104.21444	76.33495	104.21444
4750.00000	105.40648	64.07956	105.40648
4800.00000	106.33681	49.61736	106.33681
4850.00000	106.77399	34.24914	106.77399
4900.00000	106.71807	18.67778	106.71807
4950.00000	106.14639	 4.19445	106.14639
5000.00000	105.10524	-7.90609	105.10524
5050.00000	104.06030	-15.76342	104.06030
5100.00000	102.87271	-25.07058	102.87271
5150.00000	100.40811	-27.59824	100.40811
5200.00000	99.32544	-9.17763	99.32544
5250.00000	102.40671	-3.66459	102.40671
5300.00000	104.09935	-17.04670	104.09935
5350.00000	104.36528	-30.49965	104.36528
5400.00000	104.10071	-41.23643	104.10071
5450.00000	103.62949	-49.72327	103.62949
5500.00000	103.14866	-56.91818	103.14866
5550.00000	102.69151	-63.24025	102.69151
5600.00000	102.23644	-68.84942	102.23644
5650.00000	101.79955	-74.10978	101.79955
5700.00000	101.36629	-79.11543	101.36629
5750.00000	100.95210	-83.48686	100.95210
5800.00000	100.52223	-87.78653	100.52223
5850.00000	100.15322	-92.08142	100.15322
5900.00000	99.77195	-96.00020	99.77195
5950.00000	99.42189	-99.81642	99.42189
6000.00000	99.02632	-103.31045	99.02632
6050.00000	98.70097	-107.02259	98.70097
6100.00000	98.36940	-110.42565	98.36940
6150.00000	98.04564	-113.83601	98.04564
6200.00000	97.68586	-116.94795	97.68586
6250.00000	97.36124	-120.09090	97.36124
6300.00000	97.02403	-123.18178	97.02403
6350.00000	96.75443	-126.36843	96.75443
6400.00000	96.43413	-129.21574	96.43413
6450.00000	96.10574	-131.87807	96.10574
6500.00000	95.80265	-134.78664	95.80265
6550.00000	95.49669	-137.49195	95.49669
6600.00000	95.19547	-140.01723	95.19547
6650.00000	94.89924	-142.37848	94.89924
6700.00000	94.58236	-144.94797	94.58236
6750.00000	94.28500	-146.99008	94.28500
6800.00000	93.97832	-149.11278	93.97832
6850.00000	93.76429	-150.74516	93.76429
6900.00000	93.46357	-152.61954	93.46357
6950.00000	93.18257	-154.29877	93.18257
7000.00000	93.01593	-155.70370	93.01593
7050.00000	92.81166	-157.78700	92.81166
7100.00000	92.62273	-159.17927	92.62273
7150.00000	92.42617	-160.74359	92.42617
7200.00000	92.28175	-162.13248	92.28175
7250.00000	92.14511	-163.53400	92.14511
7300.00000	92.00921	-165.05989	92.00921
7350.00000	91.89506	-166.32657	91.89506
7400.00000	91.86885	-167.79420	91.86885
7450.00000	91.85423	-168.51621	91.85423
7500.00000	91.88664	-170.13773	91.88664
7550.00000	91.93653	-171.61732	91.93653
7600.00000	92.03151	-173.24904	92.03151
7650.00000	92.10669	-175.02007	92.10669
7700.00000	92.24423	-177.03094	92.24423
7750.00000	92.30280	-179.22381	92.30280
7800.00000	92.47188	-182.12060	92.47188
7850.00000	92.63547	-184.92632	92.63547
7900.00000	92.72547	-187.92605	92.72547
7950.00000	92.81386	-191.01146	92.81386
8000.00000	92.85471	-194.86782	92.85471
8050.00000	92.89512	-198.61667	92.89512
8100.00000	92.91617	-202.07766	92.91617
8150.00000	92.84877	-206.13863	92.84877
8200.00000	92.81368	-209.55209	92.81368
8250.00000	92.70020	-213.48258	92.70020
8300.00000	92.61631	-217.29252	92.61631
8350.00000	92.44669	-221.03879	92.44669
8400.00000	92.23665	-225.09798	92.23665
8450.00000	91.97005	-228.79735	91.97005
8500.00000	91.68919	-232.34700	91.68919
8550.00000	91.49553	-235.43287	91.49553
8600.00000	91.16075	-238.50846	91.16075
8650.00000	90.90253	-242.17248	90.90253
8700.00000	90.62432	-245.84465	90.62432
8750.00000	90.30881	-247.79296	90.30881
8800.00000	90.01571	-250.70081	90.01571
8850.00000	89.69069	-253.41316	89.69069
8900.00000	89.44914	-255.82819	89.44914
8950.00000	89.15613	-258.42031	89.15613
9000.00000	88.79570	-260.24677	88.79570
9050.00000	88.59081	-262.73022	88.59081
9100.00000	88.31120	-264.85154	88.31120
9150.00000	88.17338	-267.10580	88.17338
9200.00000	88.02463	-268.74549	88.02463
9250.00000	87.77136	-271.15613	87.77136
9300.00000	87.66940	-272.79661	87.66940
9350.00000	87.50692	-274.94141	87.50692
9400.00000	87.26438	-276.53167	87.26438
9450.00000	87.20453	-278.13351	87.20453
9500.00000	87.08963	-280.12934	87.08963
9550.00000	86.96330	-281.57282	86.96330
9600.00000	86.85585	-283.38328	86.85585
9650.00000	86.75047	-285.73720	86.75047
9700.00000	86.64654	-286.88362	86.64654
9750.00000	86.62220	-289.69034	86.62220
9800.00000	86.42060	-291.30041	86.42060
9850.00000	86.32117	-292.94152	86.32117
9900.00000	86.04949	-295.17645	86.04949
9950.00000	85.90924	-297.12497	85.90924
10000.00000	85.67120	-299.26171	85.67120
10050.00000	85.53196	-301.07836	85.53196
10100.00000	85.31799	-303.09860	85.31799
10150.00000	85.07581	-305.99526	85.07581
10200.00000	84.93380	-307.92737	84.93380
10250.00000	84.64050	-310.28000	84.64050
10300.00000	84.64662	-312.26069	84.64662
10350.00000	84.44223	-314.25859	84.44223
10400.00000	84.24166	-316.74992	84.24166
10450.00000	84.15938	-318.55334	84.15938
10500.00000	84.11582	-320.52168	84.11582
10550.00000	83.96184	-322.93319	83.96184
10600.00000	83.89066	-324.89699	83.89066
10650.00000	83.71266	-326.42522	83.71266
10700.00000	83.64368	-329.17051	83.64368
10750.00000	83.53529	-331.23239	83.53529
10800.00000	83.37230	-333.36658	83.37230
10850.00000	83.23449	-336.01943	83.23449
10900.00000	83.09924	-337.97344	83.09924
10950.00000	82.95415	-339.99066	82.95415
11000.00000	82.72929	-342.29509	82.72929
11050.00000	82.48703	-344.29285	82.48703
11100.00000	82.25030	-346.91181	82.25030
11150.00000	81.92556	-348.63384	81.92556
11200.00000	81.80476	-350.50091	81.80476
11250.00000	81.50076	-352.82151	81.50076
11300.00000	81.19816	-354.97912	81.19816
11350.00000	80.93628	-356.08281	80.93628
11400.00000	80.57796	-357.27106	80.57796
11450.00000	80.38041	-359.60649	80.38041
11500.00000	80.29579	-360.31467	80.29579
11550.00000	80.04052	-361.38067	80.04052
11600.00000	79.93065	-363.53507	79.93065
11650.00000	79.76162	-363.92334	79.76162
11700.00000	79.66664	-364.82201	79.66664
11750.00000	79.50816	-365.91179	79.50816
11800.00000	79.44818	-367.33106	79.44818
11850.00000	79.43346	-368.29061	79.43346
11900.00000	79.20815	-370.07841	79.20815
11950.00000	79.13608	-371.33616	79.13608
12000.00000	79.00896	-372.44551	79.00896
12050.00000	78.97083	-374.27429	78.97083
12100.00000	78.91869	-376.92444	78.91869
12150.00000	78.77273	-378.46938	78.77273
12200.00000	78.69439	-381.23666	78.69439
12250.00000	78.69151	-382.68977	78.69151
12300.00000	79.69801	-385.71943	79.69801
12350.00000	78.38259	-388.00176	78.38259
12400.00000	78.23490	-390.06929	78.23490
12450.00000	78.04350	-391.52057	78.04350
12500.00000	77.88126	-393.81497	77.88126
12550.00000	77.56094	-396.26875	77.56094
12600.00000	77.17827	-397.95405	77.17827
12650.00000	77.20880	-399.41387	77.20880
12700.00000	76.74579	-401.27206	76.74579
12750.00000	76.50215	-404.24445	76.50215
12800.00000	76.03343	-404.88720	76.03343
12850.00000	75.59059	-405.44105	75.59059
12900.00000	75.48013	-408.56848	75.48013
12950.00000	75.20152	-408.96617	75.20152
13000.00000	74.89551	-411.79528	74.89551
13050.00000	74.73839	-409.99604	74.73839
13100.00000	74.47289	-410.84237	74.47289
13150.00000	74.41235	-413.99601	74.41235
13200.00000	74.10877	-413.78836	74.10877
13250.00000	73.90977	-412.91134	73.90977
13300.00000	73.41055	-412.22287	73.41055
13350.00000	73.12777	-413.60374	73.12777
13400.00000	73.45614	-414.09149	73.45614
13450.00000	72.70678	-413.93721	72.70678
13500.00000	72.47632	-414.32242	72.47632
13550.00000	72.52704	-414.25622	72.52704
13600.00000	72.52090	-414.60270	72.52090
13650.00000	72.13772	-416.00420	72.13772
13700.00000	71.75568	-415.44891	71.75568
13750.00000	71.25454	-417.31271	71.25454
13800.00000	71.48998	-417.44397	71.48998
13850.00000	70.55735	-413.85193	70.55735
13900.00000	71.11141	-416.79000	71.11141
13950.00000	71.37213	-417.54435	71.37213
14000.00000	70.58888	-416.41403	70.58888
14050.00000	71.10695	-414.57764	71.10695
14100.00000	70.56460	-416.00541	70.56460
14150.00000	70.81104	-414.82992	70.81104
14200.00000	70.62950	-415.28425	70.62950
14250.00000	71.06496	-415.33587	71.06496
14300.00000	70.91650	-412.24222	70.91650
14350.00000	70.41821	-412.45474	70.41821
14400.00000	70.43269	-413.63758	70.43269
14450.00000	70.94370	-411.02071	70.94370
14500.00000	70.56935	-410.02129	70.56935
14550.00000	70.46120	-410.44416	70.46120
14600.00000	70.63994	-414.82994	70.63994
14650.00000	71.16026	-413.14721	71.16026
14700.00000	71.10619	-415.14750	71.10619
14750.00000	71.30289	-414.03089	71.30289
14800.00000	70.94390	-413.64123	70.94390
14850.00000	71.15670	-416.27900	71.15670
14900.00000	72.30913	-411.98511	72.30913
14950.00000	71.42995	-413.65637	71.42995
15000.00000	72.00718	-418.26183	72.00718
15050.00000	71.79271	-411.52548	71.79271
15100.00000	71.92155	-414.64203	71.92155
15150.00000	72.00401	-419.67241	72.00401
15200.00000	72.58031	-413.84382	72.58031
15250.00000	71.83385	-417.57256	71.83385
15300.00000	72.26353	-417.63397	72.26353
15350.00000	72.76891	-416.44689	72.76891
15400.00000	72.09941	-419.22567	72.09941
15450.00000	72.12373	-417.43816	72.12373
15500.00000	72.34636	-421.86931	72.34636
15550.00000	72.81684	-420.00021	72.81684
15600.00000	72.72282	-422.03789	72.72282
15650.00000	73.77189	-419.17493	73.77189
15700.00000	73.08734	-419.46598	73.08734
15750.00000	73.03253	-422.38823	73.03253
15800.00000	73.71030	-418.53666	73.71030
15850.00000	74.02598	-419.87002	74.02598
15900.00000	73.98214	-422.04593	73.98214
15950.00000	74.26050	-424.58135	74.26050
16000.00000	74.14078	-423.93543	74.14078
16050.00000	74.05139	-427.40868	74.05139
16100.00000	75.18294	-423.63157	75.18294
16150.00000	74.89918	-426.89011	74.89918
16200.00000	75.42488	-427.38651	75.42488
16250.00000	75.60072	-427.04487	75.60072
16300.00000	76.03740	-430.56461	76.03740
16350.00000	76.01164	-429.26713	76.01164
16400.00000	76.19682	-427.95167	76.19682
16450.00000	75.92405	-430.23777	75.92405
16500.00000	77.36370	-436.62944	77.36370
16550.00000	77.04218	-434.66723	77.04218
16600.00000	77.13077	-437.67795	77.13077
16650.00000	77.43934	-436.10907	77.43934
16700.00000	77.42019	-435.00414	77.42019
16750.00000	78.12294	-439.68240	78.12294
16800.00000	77.95422	-440.90834	77.95422
16850.00000	78.41572	-441.40335	78.41572
16900.00000	78.77828	-443.20957	78.77828
16950.00000	78.81669	-446.82713	78.81669
17000.00000	79.06671	-449.19647	79.06671
17050.00000	79.30955	-449.08453	79.30955
17100.00000	79.82405	-450.01957	79.82405
17150.00000	79.89467	-452.50052	79.89467
17200.00000	80.25703	-456.66464	80.25703
17250.00000	80.16434	-459.35869	80.16434
17300.00000	80.48651	-459.97938	80.48651
17350.00000	80.72852	-458.91643	80.72852
17400.00000	80.50516	-463.22298	80.50516
17450.00000	81.15642	-466.11240	81.15642
17500.00000	80.97366	-469.76507	80.97366
17550.00000	81.15118	-471.54975	81.15118
17600.00000	81.58628	-472.27448	81.58628
17650.00000	81.62719	-474.04430	81.62719
17700.00000	81.74750	-476.27917	81.74750
17750.00000	82.35567	-476.90664	82.35567
17800.00000	82.26617	-480.11101	82.26617
17850.00000	82.73960	-480.95740	82.73960
17900.00000	82.41698	-484.39909	82.41698
17950.00000	83.06481	-486.11815	83.06481
18000.00000	83.06481	-486.44463	83.06481
18050.00000	83.40013	-489.00668	83.40013
18100.00000	83.75629	-492.59292	83.75629
18150.00000	83.36841	-493.01342	83.36841
18200.00000	84.03217	-497.39771	84.03217
18250.00000	84.17002	-498.77754	84.17002
18300.00000	84.28213	-501.55289	84.28213
18350.00000	84.58343	-504.81265	84.58343
18400.00000	84.61251	-504.17140	84.61251
18450.00000	85.05736	-509.56274	85.05736
18500.00000	85.14322	-512.48253	85.14322
18550.00000	85.26704	-513.35780	85.26704
18600.00000	85.70320	-517.22627	85.70320
18650.00000	85.76237	-518.80923	85.76237
18700.00000	85.73372	-522.32835	85.73372
18750.00000	86.02130	-524.68632	86.02130
18800.00000	86.45133	-526.28086	86.45133
18850.00000	86.50701	-529.09543	86.50701
18900.00000	86.72430	-532.88265	86.72430
18950.00000	87.05683	-535.07089	87.05683
19000.00000	87.09564	-538.49265	87.09564
19050.00000	87.24473	-541.69130	87.24473
19100.00000	87.40975	-543.97996	87.40975
19150.00000	87.74532	-548.29515	87.74532
19200.00000	87.92283	-550.88860	87.92283
19250.00000	88.05633	-555.56376	88.05633
19300.00000	88.02806	-558.46551	88.02806
19350.00000	88.24226	-562.12950	88.24226
19400.00000	88.31968	-565.74691	88.31968
19450.00000	88.54841	-568.93424	88.54841
19500.00000	88.36286	-573.87159	88.36286
19550.00000	88.53973	-576.92128	88.53973
19600.00000	88.44273	-581.11368	88.44273
19650.00000	88.51940	-584.60145	88.51940
19700.00000	88.36746	-587.96701	88.36746
19750.00000	88.38663	-591.23234	88.38663
19800.00000	88.45516	-595.99605	88.45516
19850.00000	88.38785	-598.31671	88.38785
19900.00000	88.33631	-602.94012	88.33631
19950.00000	88.15566	-606.36384	88.15566
20000.00000	88.18389	-609.26137	88.18389
20050.00000	88.05928	-612.34182	88.05928
20100.00000	87.87639	-616.42021	87.87639
20150.00000	87.91838	-618.67441	87.91838
20200.00000	87.65401	-622.26611	87.65401
20250.00000	87.59180	-625.38207	87.59180
20300.00000	87.43387	-628.32121	87.43387
20350.00000	87.22113	-630.75153	87.22113
20400.00000	87.04894	-633.20050	87.04894
20450.00000	86.76514	-636.04601	86.76514
20500.00000	86.75532	-638.02012	86.75532
20550.00000	86.30926	-640.62475	86.30926
20600.00000	86.21425	-642.19923	86.21425
20650.00000	86.07705	-644.08178	86.07705
20700.00000	85.80771	-646.04134	85.80771
20750.00000	85.71182	-647.33348	85.71182
20800.00000	85.53949	-648.18142	85.53949
20850.00000	85.44371	-649.86382	85.44371
20900.00000	85.29639	-650.56454	85.29639
20950.00000	85.29309	-650.52101	85.29309
21000.00000	85.18311	-651.62162	85.18311
21050.00000	85.25124	-651.53844	85.25124
21100.00000	85.33515	-651.88350	85.33515
21150.00000	85.50536	-652.96692	85.50536
21200.00000	85.76353	-653.40638	85.76353
21250.00000	85.86098	-655.60695	85.86098
21300.00000	86.13443	-656.54164	86.13443
21350.00000	86.35912	-657.49176	86.35912
21400.00000	86.56025	-660.49654	86.56025
21450.00000	86.78831	-662.48429	86.78831
21500.00000	86.95886	-665.27590	86.95886
21550.00000	87.06913	-668.61627	87.06913
21600.00000	87.24792	-670.95408	87.24792
21650.00000	87.41373	-673.90348	87.41373
21700.00000	87.46870	-676.40022	87.46870
21750.00000	87.60576	-679.61490	87.60576
21800.00000	87.64204	-682.82225	87.64204
21850.00000	87.60599	-685.59463	87.60599
21900.00000	87.67636	-688.10199	87.67636
21950.00000	87.76542	-690.87602	87.76542
22000.00000	87.73139	-692.71682	87.73139
22050.00000	87.81629	-695.82254	87.81629
22100.00000	87.66179	-697.73024	87.66179
22150.00000	87.76341	-699.72209	87.76341
22200.00000	87.62646	-701.90938	87.62646
22250.00000	87.56153	-704.48620	87.56153
22300.00000	87.65926	-706.99017	87.65926
22350.00000	87.47518	-710.15767	87.47518
22400.00000	87.81631	-712.42330	87.81631
22450.00000	87.51246	-713.02072	87.51246
22500.00000	87.32840	-715.99096	87.32840
22550.00000	87.37674	-717.31928	87.37674
22600.00000	87.50839	-720.84711	87.50839
22650.00000	87.37229	-720.78321	87.37229
22700.00000	87.37771	-723.43799	87.37771
22750.00000	87.38519	-723.52847	87.38519
22800.00000	87.28676	-727.65122	87.28676
22850.00000	87.63153	-728.49799	87.63153
22900.00000	87.29984	-729.66770	87.29984
22950.00000	87.34280	-732.13948	87.34280
23000.00000	87.35403	-733.98177	87.35403
23050.00000	87.40795	-734.29799	87.40795
23100.00000	87.71809	-736.55733	87.71809
23150.00000	87.47339	-736.85602	87.47339
23200.00000	87.71992	-739.38886	87.71992
23250.00000	87.66924	-741.76922	87.66924
23300.00000	87.63187	-745.55710	87.63187
23350.00000	87.66754	-744.61574	87.66754
23400.00000	87.75236	-747.28652	87.75236
23450.00000	88.22519	-750.46455	88.22519
23500.00000	87.75946	-750.33808	87.75946
