---ACOUSTIC CALIBRATION---
Filename: C:\Data\AZH DATA\AZH62\RightPrimary.calib
Date: 8/27/2019 3:45:01 PM
Format: 4
Probe Tube Correction File: C:\Data\Probe Tube Calibrations\50_ProbeTube.calib
Experiment VIs: 850
EPL_CFTS.exe V12.0.1 (2012)
DAQmx V9.6

Attenuation (dB): 40.000000
Min Freq (Hz): 50.000000
Max Freq (Hz): 49950.000000
Freq Step (Hz): 50.000000
Sample Rate (Hz): 100000.000000
[Smoothing]
Method=None
MA.Iterations=0
MA.Length=0
Loess.Length=0
Loess.Type=Linear
Loess.Robust=FALSE


Freq(Hz)	Mag(dB)	Phase(deg)	Unsmoothed(dB)

50.00000	90.33410	639.26118	90.33410
100.00000	78.24914	795.25240	78.24914
150.00000	73.71560	843.14090	73.71560
200.00000	73.45916	862.34206	73.45916
250.00000	88.89284	790.59525	88.89284
300.00000	76.19599	816.87435	76.19599
350.00000	82.73836	770.45536	82.73836
400.00000	80.72759	756.31070	80.72759
450.00000	81.74498	729.74801	81.74498
500.00000	83.28801	732.64204	83.28801
550.00000	86.33477	722.94517	86.33477
600.00000	89.95701	734.29197	89.95701
650.00000	92.96575	712.14082	92.96575
700.00000	94.71880	697.40199	94.71880
750.00000	96.69545	682.94547	96.69545
800.00000	97.47261	660.09293	97.47261
850.00000	97.06019	641.31937	97.06019
900.00000	96.08104	624.47653	96.08104
950.00000	94.36430	621.89762	94.36430
1000.00000	92.83985	623.10329	92.83985
1050.00000	90.91464	636.82114	90.91464
1100.00000	92.72312	657.94558	92.72312
1150.00000	95.75224	662.14606	95.75224
1200.00000	98.44476	659.72379	98.44476
1250.00000	100.26706	651.39072	100.26706
1300.00000	101.70363	646.70939	101.70363
1350.00000	103.05535	635.43410	103.05535
1400.00000	103.62118	628.07689	103.62118
1450.00000	104.63870	622.67271	104.63870
1500.00000	105.68081	616.18459	105.68081
1550.00000	106.66526	608.34378	106.66526
1600.00000	108.19687	598.43718	108.19687
1650.00000	109.19597	581.59320	109.19597
1700.00000	107.92450	570.83372	107.92450
1750.00000	107.60579	565.33209	107.60579
1800.00000	107.39988	560.75280	107.39988
1850.00000	107.35362	559.53249	107.35362
1900.00000	108.36624	556.56136	108.36624
1950.00000	109.20437	544.38955	109.20437
2000.00000	108.31796	532.83327	108.31796
2050.00000	107.09955	536.48466	107.09955
2100.00000	108.90669	536.78844	108.90669
2150.00000	109.60282	525.86670	109.60282
2200.00000	109.54529	516.39652	109.54529
2250.00000	109.02024	508.91620	109.02024
2300.00000	109.12855	503.53377	109.12855
2350.00000	108.93757	497.03597	108.93757
2400.00000	108.71749	491.32160	108.71749
2450.00000	108.46965	484.87711	108.46965
2500.00000	108.08598	479.39183	108.08598
2550.00000	107.67103	473.99732	107.67103
2600.00000	107.19660	469.33090	107.19660
2650.00000	106.67124	465.50703	106.67124
2700.00000	106.22322	461.34219	106.22322
2750.00000	105.64157	457.73394	105.64157
2800.00000	105.01896	455.16180	105.01896
2850.00000	104.43465	452.78531	104.43465
2900.00000	103.76682	450.49476	103.76682
2950.00000	103.14934	449.15160	103.14934
3000.00000	102.52226	446.87124	102.52226
3050.00000	101.65294	445.90977	101.65294
3100.00000	100.67079	445.34755	100.67079
3150.00000	99.06788	444.54034	99.06788
3200.00000	97.33992	453.35190	97.33992
3250.00000	96.18700	465.77398	96.18700
3300.00000	95.25013	481.85651	95.25013
3350.00000	96.00058	504.81397	96.00058
3400.00000	98.84266	522.12258	98.84266
3450.00000	101.85460	528.24661	101.85460
3500.00000	104.56562	527.43549	104.56562
3550.00000	106.66217	522.75897	106.66217
3600.00000	108.47417	518.27475	108.47417
3650.00000	109.88968	511.90749	109.88968
3700.00000	111.14115	506.72364	111.14115
3750.00000	112.40509	501.24722	112.40509
3800.00000	113.59223	494.86144	113.59223
3850.00000	114.60523	488.20599	114.60523
3900.00000	115.57673	481.63835	115.57673
3950.00000	116.53707	474.72668	116.53707
4000.00000	117.41801	467.39000	117.41801
4050.00000	118.23735	460.13117	118.23735
4100.00000	119.10416	452.62712	119.10416
4150.00000	120.15867	444.09888	120.15867
4200.00000	120.91824	433.96723	120.91824
4250.00000	121.60899	422.61179	121.60899
4300.00000	122.04071	410.37503	122.04071
4350.00000	122.13500	397.90154	122.13500
4400.00000	121.99461	386.31833	121.99461
4450.00000	121.67287	375.91194	121.67287
4500.00000	121.28088	366.45040	121.28088
4550.00000	120.85521	357.66395	120.85521
4600.00000	120.40738	349.59271	120.40738
4650.00000	120.03362	341.88991	120.03362
4700.00000	119.62107	333.63222	119.62107
4750.00000	119.09940	324.96817	119.09940
4800.00000	118.36527	316.01176	118.36527
4850.00000	117.32036	307.74262	117.32036
4900.00000	116.01672	301.51372	116.01672
4950.00000	114.62458	297.87108	114.62458
5000.00000	113.27298	296.89532	113.27298
5050.00000	112.22608	297.16205	112.22608
5100.00000	111.01012	300.61393	111.01012
5150.00000	110.91164	306.43770	110.91164
5200.00000	110.24765	310.31545	110.24765
5250.00000	111.53444	322.86985	111.53444
5300.00000	113.94367	315.11269	113.94367
5350.00000	114.15539	301.84011	114.15539
5400.00000	113.59201	294.10607	113.59201
5450.00000	113.03959	289.72267	113.03959
5500.00000	112.60525	286.41495	112.60525
5550.00000	112.27492	283.85239	112.27492
5600.00000	112.00738	281.23905	112.00738
5650.00000	111.79073	279.05008	111.79073
5700.00000	111.59067	276.63401	111.59067
5750.00000	111.42680	274.22745	111.42680
5800.00000	111.27022	271.88132	111.27022
5850.00000	111.12702	269.47247	111.12702
5900.00000	111.00034	267.27217	111.00034
5950.00000	110.88054	264.84888	110.88054
6000.00000	110.76749	262.64297	110.76749
6050.00000	110.64550	260.42289	110.64550
6100.00000	110.58647	258.20160	110.58647
6150.00000	110.52892	255.95033	110.52892
6200.00000	110.47417	253.50565	110.47417
6250.00000	110.41856	250.71256	110.41856
6300.00000	110.36457	248.19531	110.36457
6350.00000	110.27786	245.36565	110.27786
6400.00000	110.17244	242.72635	110.17244
6450.00000	110.10092	240.08427	110.10092
6500.00000	110.02117	237.56843	110.02117
6550.00000	109.90982	234.92392	109.90982
6600.00000	109.82370	232.40469	109.82370
6650.00000	109.72978	230.00244	109.72978
6700.00000	109.65498	227.44895	109.65498
6750.00000	109.59339	224.97858	109.59339
6800.00000	109.50764	222.62922	109.50764
6850.00000	109.45502	220.43578	109.45502
6900.00000	109.42127	218.06946	109.42127
6950.00000	109.36605	215.78738	109.36605
7000.00000	109.35202	213.32573	109.35202
7050.00000	109.32643	210.65605	109.32643
7100.00000	109.32614	207.98084	109.32614
7150.00000	109.30304	205.55922	109.30304
7200.00000	109.27364	202.76969	109.27364
7250.00000	109.22044	199.88578	109.22044
7300.00000	109.20652	197.05019	109.20652
7350.00000	109.15727	194.38324	109.15727
7400.00000	109.10753	191.42923	109.10753
7450.00000	109.07036	188.46571	109.07036
7500.00000	109.03089	185.13342	109.03089
7550.00000	108.94080	182.56787	108.94080
7600.00000	108.88544	179.82445	108.88544
7650.00000	108.79215	176.93020	108.79215
7700.00000	108.74353	174.17881	108.74353
7750.00000	108.63939	171.55335	108.63939
7800.00000	108.58060	168.87250	108.58060
7850.00000	108.51382	166.14739	108.51382
7900.00000	108.48315	163.66946	108.48315
7950.00000	108.43205	160.97341	108.43205
8000.00000	108.39040	158.23436	108.39040
8050.00000	108.37061	155.05480	108.37061
8100.00000	108.35418	152.71072	108.35418
8150.00000	108.27932	150.11520	108.27932
8200.00000	108.29336	147.62389	108.29336
8250.00000	108.24897	144.52487	108.24897
8300.00000	108.24946	141.47972	108.24946
8350.00000	108.22332	138.58042	108.22332
8400.00000	108.17859	135.25253	108.17859
8450.00000	108.14300	132.09156	108.14300
8500.00000	108.11795	128.30733	108.11795
8550.00000	108.10122	124.72690	108.10122
8600.00000	108.06556	120.62107	108.06556
8650.00000	107.94817	116.45491	107.94817
8700.00000	107.85849	111.68853	107.85849
8750.00000	107.66574	108.33123	107.66574
8800.00000	107.51529	103.85706	107.51529
8850.00000	107.25406	99.70964	107.25406
8900.00000	106.98371	96.00220	106.98371
8950.00000	106.67092	92.10484	106.67092
9000.00000	106.31288	88.57989	106.31288
9050.00000	105.98705	84.71219	105.98705
9100.00000	105.61733	81.40243	105.61733
9150.00000	105.26089	78.08044	105.26089
9200.00000	104.94276	74.90992	104.94276
9250.00000	104.59950	71.89634	104.59950
9300.00000	104.30880	69.40218	104.30880
9350.00000	104.10172	66.76731	104.10172
9400.00000	103.73904	64.81795	103.73904
9450.00000	103.45445	63.14486	103.45445
9500.00000	103.16940	62.46634	103.16940
9550.00000	103.03365	61.74025	103.03365
9600.00000	102.91109	59.58818	102.91109
9650.00000	102.65483	57.48502	102.65483
9700.00000	102.38655	55.96184	102.38655
9750.00000	102.18662	53.18683	102.18662
9800.00000	101.91413	51.69338	101.91413
9850.00000	101.72778	50.07377	101.72778
9900.00000	101.43822	47.99459	101.43822
9950.00000	101.29649	46.47782	101.29649
10000.00000	101.11703	44.31255	101.11703
10050.00000	100.97162	42.67073	100.97162
10100.00000	100.76642	41.22816	100.76642
10150.00000	100.49147	39.00354	100.49147
10200.00000	100.28554	37.27327	100.28554
10250.00000	100.01978	35.17430	100.01978
10300.00000	99.91365	33.03069	99.91365
10350.00000	99.70948	30.96411	99.70948
10400.00000	99.48075	28.47569	99.48075
10450.00000	99.42682	25.95307	99.42682
10500.00000	99.37739	23.82194	99.37739
10550.00000	99.28210	21.56657	99.28210
10600.00000	99.17769	19.72502	99.17769
10650.00000	99.02765	18.35927	99.02765
10700.00000	98.91996	15.71988	98.91996
10750.00000	98.82373	13.67155	98.82373
10800.00000	98.60478	11.94310	98.60478
10850.00000	98.43699	 8.85700	98.43699
10900.00000	98.27345	 6.66299	98.27345
10950.00000	98.12112	 4.65503	98.12112
11000.00000	97.97055	 2.30035	97.97055
11050.00000	97.69413	 0.00675	97.69413
11100.00000	97.50183	-2.66259	97.50183
11150.00000	97.20055	-4.49274	97.20055
11200.00000	97.05816	-6.36552	97.05816
11250.00000	96.75456	-8.73591	96.75456
11300.00000	96.43870	-11.08328	96.43870
11350.00000	96.16478	-12.83332	96.16478
11400.00000	95.82376	-14.90787	95.82376
11450.00000	95.58015	-17.51733	95.58015
11500.00000	95.44157	-18.83088	95.44157
11550.00000	95.12546	-20.52254	95.12546
11600.00000	94.98938	-22.74711	94.98938
11650.00000	94.73453	-23.25180	94.73453
11700.00000	94.56620	-24.70474	94.56620
11750.00000	94.36844	-26.32917	94.36844
11800.00000	94.18516	-28.25104	94.18516
11850.00000	94.01064	-28.95917	94.01064
11900.00000	93.65568	-31.05195	93.65568
11950.00000	93.44170	-32.52390	93.44170
12000.00000	93.24764	-33.37888	93.24764
12050.00000	92.94809	-34.67429	92.94809
12100.00000	92.83960	-37.00547	92.83960
12150.00000	92.62451	-38.60315	92.62451
12200.00000	92.49241	-39.96546	92.49241
12250.00000	92.27310	-41.41887	92.27310
12300.00000	93.19900	-43.33567	93.19900
12350.00000	91.84419	-44.66472	91.84419
12400.00000	91.64979	-45.16269	91.64979
12450.00000	91.43272	-46.56381	91.43272
12500.00000	91.25405	-48.51715	91.25405
12550.00000	91.03927	-50.06070	91.03927
12600.00000	90.77551	-51.94510	90.77551
12650.00000	90.71080	-53.50830	90.71080
12700.00000	90.37157	-54.44153	90.37157
12750.00000	90.12996	-56.38116	90.12996
12800.00000	89.91289	-57.34326	89.91289
12850.00000	89.34179	-58.56471	89.34179
12900.00000	89.05120	-60.49071	89.05120
12950.00000	88.83503	-61.87622	88.83503
13000.00000	88.66246	-64.15160	88.66246
13050.00000	88.43745	-63.87305	88.43745
13100.00000	88.08137	-65.36476	88.08137
13150.00000	87.84016	-66.68038	87.84016
13200.00000	87.59481	-66.18917	87.59481
13250.00000	87.22955	-67.24542	87.22955
13300.00000	86.80256	-66.72172	86.80256
13350.00000	86.49178	-67.47231	86.49178
13400.00000	86.39289	-68.65495	86.39289
13450.00000	86.01590	-67.40556	86.01590
13500.00000	85.69854	-66.10459	85.69854
13550.00000	85.26074	-66.16635	85.26074
13600.00000	85.03200	-65.16295	85.03200
13650.00000	84.81893	-65.08969	84.81893
13700.00000	84.60478	-66.17742	84.60478
13750.00000	84.17594	-64.71277	84.17594
13800.00000	83.93523	-66.12080	83.93523
13850.00000	83.91746	-66.02477	83.91746
13900.00000	83.68600	-64.66729	83.68600
13950.00000	83.45953	-62.95500	83.45953
14000.00000	83.43118	-61.56963	83.43118
14050.00000	83.35065	-61.74992	83.35065
14100.00000	83.19528	-61.18401	83.19528
14150.00000	83.32994	-60.59903	83.32994
14200.00000	83.29033	-58.20292	83.29033
14250.00000	83.73708	-56.31673	83.73708
14300.00000	83.46978	-54.45563	83.46978
14350.00000	83.38613	-52.08140	83.38613
14400.00000	82.98771	-52.22194	82.98771
14450.00000	83.00993	-50.81327	83.00993
14500.00000	82.97181	-50.80077	82.97181
14550.00000	83.19462	-49.25687	83.19462
14600.00000	83.07701	-49.57097	83.07701
14650.00000	83.67214	-47.33118	83.67214
14700.00000	83.67924	-50.25903	83.67924
14750.00000	83.68723	-49.53922	83.68723
14800.00000	83.64207	-47.58017	83.64207
14850.00000	83.96871	-46.68553	83.96871
14900.00000	84.27173	-47.09325	84.27173
14950.00000	84.62206	-46.55045	84.62206
15000.00000	84.98376	-45.30500	84.98376
15050.00000	84.71688	-43.14212	84.71688
15100.00000	84.93520	-42.77101	84.93520
15150.00000	85.21766	-43.60497	85.21766
15200.00000	85.32604	-41.95170	85.32604
15250.00000	85.48206	-42.53809	85.48206
15300.00000	85.83120	-42.00138	85.83120
15350.00000	86.16048	-41.44356	86.16048
15400.00000	86.16669	-39.76009	86.16669
15450.00000	86.36700	-40.66239	86.36700
15500.00000	86.96590	-39.87459	86.96590
15550.00000	87.20704	-40.73265	87.20704
15600.00000	87.55758	-41.08496	87.55758
15650.00000	88.00310	-38.85238	88.00310
15700.00000	88.28004	-39.86388	88.28004
15750.00000	88.66374	-39.33271	88.66374
15800.00000	89.01375	-39.17101	89.01375
15850.00000	89.53811	-40.04344	89.53811
15900.00000	89.93930	-41.73732	89.93930
15950.00000	90.49528	-42.70101	90.49528
16000.00000	90.83587	-42.34324	90.83587
16050.00000	91.33140	-44.31519	91.33140
16100.00000	91.54584	-45.69590	91.54584
16150.00000	91.87560	-47.22316	91.87560
16200.00000	92.34037	-49.80581	92.34037
16250.00000	92.92457	-51.07424	92.92457
16300.00000	93.37529	-53.15545	93.37529
16350.00000	93.77479	-55.00826	93.77479
16400.00000	94.13565	-56.68850	94.13565
16450.00000	94.43960	-58.91641	94.43960
16500.00000	94.75646	-61.70928	94.75646
16550.00000	95.14259	-64.33900	95.14259
16600.00000	95.52616	-66.58548	95.52616
16650.00000	95.87097	-68.78406	95.87097
16700.00000	96.22438	-70.88243	96.22438
16750.00000	96.35178	-74.44994	96.35178
16800.00000	96.59514	-77.39401	96.59514
16850.00000	96.99242	-80.20491	96.99242
16900.00000	97.27697	-83.32204	97.27697
16950.00000	97.55846	-85.92602	97.55846
17000.00000	97.61578	-89.10177	97.61578
17050.00000	97.87858	-91.81798	97.87858
17100.00000	97.91973	-93.73634	97.91973
17150.00000	98.25570	-97.69743	98.25570
17200.00000	98.42805	-100.01413	98.42805
17250.00000	98.52648	-103.22035	98.52648
17300.00000	98.73792	-105.87152	98.73792
17350.00000	98.73053	-108.33103	98.73053
17400.00000	98.87777	-111.12800	98.87777
17450.00000	98.95567	-114.48430	98.95567
17500.00000	99.15419	-117.01711	99.15419
17550.00000	99.28229	-119.17415	99.28229
17600.00000	99.47154	-121.18086	99.47154
17650.00000	99.49603	-124.78640	99.49603
17700.00000	99.62355	-127.72953	99.62355
17750.00000	99.87783	-129.80785	99.87783
17800.00000	99.91726	-132.43587	99.91726
17850.00000	100.04745	-134.38557	100.04745
17900.00000	100.12929	-136.94842	100.12929
17950.00000	100.35857	-140.15931	100.35857
18000.00000	100.41839	-143.17133	100.41839
18050.00000	100.68139	-145.34693	100.68139
18100.00000	100.73776	-148.49269	100.73776
18150.00000	100.83416	-150.43097	100.83416
18200.00000	100.82970	-153.82111	100.82970
18250.00000	100.99153	-155.63785	100.99153
18300.00000	101.14289	-158.38138	101.14289
18350.00000	101.26374	-160.85679	101.26374
18400.00000	101.32684	-163.58177	101.32684
18450.00000	101.40337	-167.15952	101.40337
18500.00000	101.49891	-169.68687	101.49891
18550.00000	101.60273	-171.86287	101.60273
18600.00000	101.82942	-175.26153	101.82942
18650.00000	101.83028	-177.61847	101.83028
18700.00000	101.92932	-180.58020	101.92932
18750.00000	102.06317	-183.43207	102.06317
18800.00000	102.25692	-185.61842	102.25692
18850.00000	102.19098	-188.73778	102.19098
18900.00000	102.27146	-191.32188	102.27146
18950.00000	102.39682	-194.40683	102.39682
19000.00000	102.30077	-196.65825	102.30077
19050.00000	102.51350	-199.57371	102.51350
19100.00000	102.57668	-201.90439	102.57668
19150.00000	102.79008	-204.42256	102.79008
19200.00000	102.87793	-206.61096	102.87793
19250.00000	102.94852	-210.47405	102.94852
19300.00000	102.99100	-212.29628	102.99100
19350.00000	103.13960	-215.27228	103.13960
19400.00000	103.18815	-217.99171	103.18815
19450.00000	103.42929	-220.21943	103.42929
19500.00000	103.45559	-223.98819	103.45559
19550.00000	103.58635	-226.74339	103.58635
19600.00000	103.76537	-230.17963	103.76537
19650.00000	103.81940	-232.89572	103.81940
19700.00000	103.84123	-236.09507	103.84123
19750.00000	103.93497	-238.77227	103.93497
19800.00000	104.12669	-242.81994	104.12669
19850.00000	104.21331	-245.78307	104.21331
19900.00000	104.24006	-250.07475	104.24006
19950.00000	104.26921	-253.39013	104.26921
20000.00000	104.32746	-256.84914	104.32746
20050.00000	104.37466	-260.23965	104.37466
20100.00000	104.29306	-263.84747	104.29306
20150.00000	104.35546	-266.55539	104.35546
20200.00000	104.30522	-270.77961	104.30522
20250.00000	104.19859	-274.21095	104.19859
20300.00000	104.07038	-277.61157	104.07038
20350.00000	104.05835	-281.10399	104.05835
20400.00000	103.89864	-283.58137	103.89864
20450.00000	103.71517	-286.78769	103.71517
20500.00000	103.65124	-290.13881	103.65124
20550.00000	103.28665	-292.15798	103.28665
20600.00000	103.23101	-294.60240	103.23101
20650.00000	103.07969	-297.03071	103.07969
20700.00000	102.88496	-299.18685	102.88496
20750.00000	102.79885	-301.09405	102.79885
20800.00000	102.62198	-302.55981	102.62198
20850.00000	102.55249	-304.34881	102.55249
20900.00000	102.40767	-305.85671	102.40767
20950.00000	102.32561	-306.65365	102.32561
21000.00000	102.27979	-307.77274	102.27979
21050.00000	102.41744	-308.59952	102.41744
21100.00000	102.44630	-309.42726	102.44630
21150.00000	102.60113	-310.86042	102.60113
21200.00000	102.76047	-311.89293	102.76047
21250.00000	102.91331	-314.40199	102.91331
21300.00000	103.14717	-315.72796	103.14717
21350.00000	103.31212	-317.62625	103.31212
21400.00000	103.47816	-320.31000	103.47816
21450.00000	103.67127	-322.90858	103.67127
21500.00000	103.83872	-325.98675	103.83872
21550.00000	103.87601	-328.56743	103.87601
21600.00000	104.06577	-331.72830	104.06577
21650.00000	104.12277	-335.01791	104.12277
21700.00000	104.16912	-337.84286	104.16912
21750.00000	104.21695	-341.04767	104.21695
21800.00000	104.24877	-344.05919	104.24877
21850.00000	104.18517	-346.87066	104.18517
21900.00000	104.20292	-349.87058	104.20292
21950.00000	104.17493	-352.48103	104.17493
22000.00000	104.20655	-355.21856	104.20655
22050.00000	104.13811	-357.47192	104.13811
22100.00000	104.11396	-360.06291	104.11396
22150.00000	104.07060	-362.54340	104.07060
22200.00000	104.11019	-364.97865	104.11019
22250.00000	104.06894	-367.15350	104.06894
22300.00000	103.93156	-369.66145	103.93156
22350.00000	104.08834	-372.05073	104.08834
22400.00000	104.05162	-374.64474	104.05162
22450.00000	104.01781	-376.67140	104.01781
22500.00000	103.94783	-378.07130	103.94783
22550.00000	103.98773	-380.74456	103.98773
22600.00000	103.98174	-383.76406	103.98174
22650.00000	104.02912	-385.78406	104.02912
22700.00000	104.01611	-387.89512	104.01611
22750.00000	104.04712	-388.79386	104.04712
22800.00000	104.10646	-393.00197	104.10646
22850.00000	104.19940	-395.92179	104.19940
22900.00000	104.25241	-396.98312	104.25241
22950.00000	104.32516	-399.72750	104.32516
23000.00000	104.34684	-401.48080	104.34684
23050.00000	104.32632	-404.92851	104.32632
23100.00000	104.47268	-406.46200	104.47268
23150.00000	104.36791	-408.23504	104.36791
