---ACOUSTIC CALIBRATION---
Filename: C:\Data\AZH DATA\AZH62\RightSecondary.calib
Date: 8/27/2019 3:44:54 PM
Format: 4
Probe Tube Correction File: C:\Data\Probe Tube Calibrations\50_ProbeTube.calib
Experiment VIs: 850
EPL_CFTS.exe V12.0.1 (2012)
DAQmx V9.6

Attenuation (dB): 40.000000
Min Freq (Hz): 50.000000
Max Freq (Hz): 49950.000000
Freq Step (Hz): 50.000000
Sample Rate (Hz): 100000.000000
[Smoothing]
Method=None
MA.Iterations=0
MA.Length=0
Loess.Length=0
Loess.Type=Linear
Loess.Robust=FALSE


Freq(Hz)	Mag(dB)	Phase(deg)	Unsmoothed(dB)

50.00000	102.64221	526.78463	102.64221
100.00000	58.55737	675.15958	58.55737
150.00000	77.63151	504.94961	77.63151
200.00000	70.69850	460.51254	70.69850
250.00000	83.51694	650.18298	83.51694
300.00000	81.05050	763.37603	81.05050
350.00000	78.13367	698.51714	78.13367
400.00000	77.91531	668.92665	77.91531
450.00000	79.11043	690.40873	79.11043
500.00000	77.89755	731.74352	77.89755
550.00000	82.94202	709.52819	82.94202
600.00000	84.47825	705.03345	84.47825
650.00000	89.52526	710.32490	89.52526
700.00000	90.79387	688.24357	90.79387
750.00000	93.30341	686.86682	93.30341
800.00000	95.72065	674.01907	95.72065
850.00000	98.49768	666.13519	98.49768
900.00000	100.04553	646.94055	100.04553
950.00000	101.29736	631.03741	101.29736
1000.00000	101.19917	611.83185	101.19917
1050.00000	100.69250	603.64081	100.69250
1100.00000	101.10819	592.75727	101.10819
1150.00000	100.43911	582.23187	100.43911
1200.00000	100.39999	580.20913	100.39999
1250.00000	100.36107	566.83227	100.36107
1300.00000	99.60181	560.02113	99.60181
1350.00000	98.58908	553.27357	98.58908
1400.00000	97.71825	556.53151	97.71825
1450.00000	97.92475	557.20423	97.92475
1500.00000	98.21465	555.95655	98.21465
1550.00000	98.15728	555.59213	98.15728
1600.00000	98.86266	553.74496	98.86266
1650.00000	99.99339	544.19370	99.99339
1700.00000	98.73703	540.05983	98.73703
1750.00000	98.96947	537.87248	98.96947
1800.00000	98.43942	532.59691	98.43942
1850.00000	98.04999	533.56350	98.04999
1900.00000	98.75481	535.70496	98.75481
1950.00000	99.87229	529.53570	99.87229
2000.00000	99.98294	519.62667	99.98294
2050.00000	98.93816	516.91273	98.93816
2100.00000	99.22009	515.35483	99.22009
2150.00000	98.72488	511.70083	98.72488
2200.00000	98.48742	508.43619	98.48742
2250.00000	97.52916	506.37097	97.52916
2300.00000	97.94798	506.50838	97.94798
2350.00000	97.54798	506.68898	97.54798
2400.00000	97.60676	507.09720	97.60676
2450.00000	97.29817	503.76506	97.29817
2500.00000	97.25478	503.92584	97.25478
2550.00000	96.63779	505.27660	96.63779
2600.00000	96.52496	511.80499	96.52496
2650.00000	97.36494	517.86041	97.36494
2700.00000	99.08936	520.53433	99.08936
2750.00000	100.65978	513.36110	100.65978
2800.00000	101.37514	502.86154	101.37514
2850.00000	101.27029	494.93949	101.27029
2900.00000	100.84869	487.96003	100.84869
2950.00000	100.43088	484.50721	100.43088
3000.00000	100.16948	480.57549	100.16948
3050.00000	99.65899	476.83575	99.65899
3100.00000	99.27132	473.61295	99.27132
3150.00000	98.57315	469.68649	98.57315
3200.00000	97.84826	468.11317	97.84826
3250.00000	97.05258	466.68036	97.05258
3300.00000	95.83804	466.56856	95.83804
3350.00000	94.18651	472.58761	94.18651
3400.00000	93.33547	485.72747	93.33547
3450.00000	93.87191	499.37764	93.87191
3500.00000	95.09186	505.89922	95.09186
3550.00000	96.36155	507.55708	96.36155
3600.00000	97.06789	508.69215	97.06789
3650.00000	97.19574	508.05462	97.19574
3700.00000	96.74835	512.53226	96.74835
3750.00000	97.20432	523.20885	97.20432
3800.00000	98.70579	532.24461	98.70579
3850.00000	100.65603	537.87640	100.65603
3900.00000	102.57190	538.52625	102.57190
3950.00000	104.40117	536.05801	104.40117
4000.00000	105.86363	532.36100	105.86363
4050.00000	107.08969	527.78576	107.08969
4100.00000	108.10314	523.81652	108.10314
4150.00000	109.22507	520.16653	109.22507
4200.00000	110.08011	516.04002	110.08011
4250.00000	111.00770	512.41122	111.00770
4300.00000	111.91703	509.10091	111.91703
4350.00000	112.86058	505.89031	112.86058
4400.00000	113.90924	503.07643	113.90924
4450.00000	115.10632	499.98798	115.10632
4500.00000	116.46158	495.72152	116.46158
4550.00000	117.88977	490.08207	117.88977
4600.00000	119.29283	483.15513	119.29283
4650.00000	120.76558	474.71024	120.76558
4700.00000	122.15623	464.14530	122.15623
4750.00000	123.38978	451.32529	123.38978
4800.00000	124.30940	436.35334	124.30940
4850.00000	124.74331	420.27805	124.74331
4900.00000	124.66319	404.11839	124.66319
4950.00000	124.06453	389.24276	124.06453
5000.00000	122.98645	376.98450	122.98645
5050.00000	121.92159	368.47141	121.92159
5100.00000	120.68606	359.02793	120.68606
5150.00000	118.21419	356.78332	118.21419
5200.00000	117.19264	374.98556	117.19264
5250.00000	120.30861	380.02557	120.30861
5300.00000	121.98674	366.27114	121.98674
5350.00000	122.24470	352.83834	122.24470
5400.00000	121.98957	341.89745	121.98957
5450.00000	121.56799	333.12971	121.56799
5500.00000	121.09505	325.56183	121.09505
5550.00000	120.63682	319.01288	120.63682
5600.00000	120.17655	313.04180	120.17655
5650.00000	119.73884	307.62573	119.73884
5700.00000	119.29079	302.34497	119.29079
5750.00000	118.87574	297.58972	118.87574
5800.00000	118.45937	292.90832	118.45937
5850.00000	118.05704	288.61272	118.05704
5900.00000	117.68684	284.42910	117.68684
5950.00000	117.32196	280.35618	117.32196
6000.00000	116.95465	276.55709	116.95465
6050.00000	116.57096	272.78552	116.57096
6100.00000	116.22135	269.12307	116.22135
6150.00000	115.87892	265.58749	115.87892
6200.00000	115.51657	262.16930	115.51657
6250.00000	115.18828	258.78939	115.18828
6300.00000	114.85456	255.54840	114.85456
6350.00000	114.51083	252.34150	114.51083
6400.00000	114.18125	249.34065	114.18125
6450.00000	113.86354	246.36655	113.86354
6500.00000	113.52854	243.48924	113.52854
6550.00000	113.18558	240.58928	113.18558
6600.00000	112.84573	238.00113	112.84573
6650.00000	112.49921	235.59327	112.49921
6700.00000	112.16366	233.20178	112.16366
6750.00000	111.83162	230.96105	111.83162
6800.00000	111.48956	229.04106	111.48956
6850.00000	111.19641	227.26887	111.19641
6900.00000	110.92055	225.59547	110.92055
6950.00000	110.65924	224.17137	110.65924
7000.00000	110.43329	222.52935	110.43329
7050.00000	110.22084	220.96434	110.22084
7100.00000	110.01285	219.34479	110.01285
7150.00000	109.82154	218.10659	109.82154
7200.00000	109.62932	216.85077	109.62932
7250.00000	109.44091	215.56224	109.44091
7300.00000	109.30551	214.70071	109.30551
7350.00000	109.18150	213.88841	109.18150
7400.00000	109.14122	213.15257	109.14122
7450.00000	109.10022	212.24961	109.10022
7500.00000	109.14096	210.96701	109.14096
7550.00000	109.13060	210.30306	109.13060
7600.00000	109.19584	209.17954	109.19584
7650.00000	109.27973	207.98764	109.27973
7700.00000	109.45459	206.78648	109.45459
7750.00000	109.58419	205.21369	109.58419
7800.00000	109.76003	203.38249	109.76003
7850.00000	109.94185	201.20600	109.94185
7900.00000	110.12939	198.96268	110.12939
7950.00000	110.30947	196.21572	110.30947
8000.00000	110.46859	193.33825	110.46859
8050.00000	110.60562	190.16228	110.60562
8100.00000	110.75259	187.53832	110.75259
8150.00000	110.82198	184.31565	110.82198
8200.00000	110.92946	181.37362	110.92946
8250.00000	111.01979	177.80171	111.01979
8300.00000	111.12404	174.35928	111.12404
8350.00000	111.18113	171.08347	111.18113
8400.00000	111.21732	167.39809	111.21732
8450.00000	111.22077	163.84587	111.22077
8500.00000	111.25012	159.89696	111.25012
8550.00000	111.27413	156.12264	111.27413
8600.00000	111.24424	151.88374	111.24424
8650.00000	111.17253	147.82918	111.17253
8700.00000	111.10035	142.88792	111.10035
8750.00000	110.93152	139.37432	110.93152
8800.00000	110.78896	134.71822	110.78896
8850.00000	110.57316	130.39208	110.57316
8900.00000	110.34113	126.61444	110.34113
8950.00000	110.10172	122.68598	110.10172
9000.00000	109.81262	119.26242	109.81262
9050.00000	109.65592	115.55531	109.65592
9100.00000	109.42604	112.23734	109.42604
9150.00000	109.17452	109.01785	109.17452
9200.00000	108.96230	105.95891	108.96230
9250.00000	108.66475	103.00878	108.66475
9300.00000	108.45379	100.36576	108.45379
9350.00000	108.29011	97.60115	108.29011
9400.00000	108.00827	95.19570	108.00827
9450.00000	107.82938	92.55286	107.82938
9500.00000	107.65227	90.33133	107.65227
9550.00000	107.47154	88.16271	107.47154
9600.00000	107.40192	85.70755	107.40192
9650.00000	107.26352	83.15786	107.26352
9700.00000	107.14126	81.33665	107.14126
9750.00000	107.05243	78.34364	107.05243
9800.00000	106.85361	76.56456	106.85361
9850.00000	106.68661	74.77137	106.68661
9900.00000	106.35412	72.36791	106.35412
9950.00000	106.13235	70.37543	106.13235
10000.00000	105.90600	67.47968	105.90600
10050.00000	105.66125	64.96317	105.66125
10100.00000	105.42743	62.33040	105.42743
10150.00000	105.15177	59.10188	105.15177
10200.00000	104.99390	56.47330	104.99390
10250.00000	104.81402	53.73414	104.81402
10300.00000	104.77803	51.47259	104.77803
10350.00000	104.59299	49.60764	104.59299
10400.00000	104.34273	47.34212	104.34273
10450.00000	104.25111	45.09873	104.25111
10500.00000	104.12145	42.98753	104.12145
10550.00000	103.92621	40.54760	103.92621
10600.00000	103.72708	38.15341	103.72708
10650.00000	103.53822	36.01509	103.53822
10700.00000	103.42706	32.51832	103.42706
10750.00000	103.37370	29.84228	103.37370
10800.00000	103.23871	27.59612	103.23871
10850.00000	103.11820	24.35046	103.11820
10900.00000	102.98352	22.26645	102.98352
10950.00000	102.81769	20.37284	102.81769
11000.00000	102.62341	18.06218	102.62341
11050.00000	102.25712	15.60731	102.25712
11100.00000	101.98747	12.50248	101.98747
11150.00000	101.63098	 9.92563	101.63098
11200.00000	101.44398	 7.38828	101.44398
11250.00000	101.15890	 4.41978	101.15890
11300.00000	100.86396	 1.79708	100.86396
11350.00000	100.61241	 0.03431	100.61241
11400.00000	100.25313	-1.93473	100.25313
11450.00000	99.97042	-4.18812	99.97042
11500.00000	99.79027	-5.40612	99.79027
11550.00000	99.38381	-7.16014	99.38381
11600.00000	99.21063	-9.92219	99.21063
11650.00000	98.93940	-10.96882	98.93940
11700.00000	98.79574	-12.87442	98.79574
11750.00000	98.65098	-14.81995	98.65098
11800.00000	98.50725	-16.87569	98.50725
11850.00000	98.36959	-17.75390	98.36959
11900.00000	97.95494	-20.10646	97.95494
11950.00000	97.73940	-21.62688	97.73940
12000.00000	97.42249	-23.30499	97.42249
12050.00000	97.11821	-25.17062	97.11821
12100.00000	96.90525	-28.13583	96.90525
12150.00000	96.66199	-30.64385	96.66199
12200.00000	96.49767	-32.97383	96.49767
12250.00000	96.21330	-34.48975	96.21330
12300.00000	97.06528	-36.73795	97.06528
12350.00000	95.59869	-38.40254	95.59869
12400.00000	95.18429	-39.12466	95.18429
12450.00000	94.80283	-40.49603	94.80283
12500.00000	94.42145	-42.62204	94.42145
12550.00000	94.06995	-44.05618	94.06995
12600.00000	93.65584	-45.61281	93.65584
12650.00000	93.42848	-46.54608	93.42848
12700.00000	93.03916	-47.24724	93.03916
12750.00000	92.67765	-47.96595	92.67765
12800.00000	92.31865	-47.99949	92.31865
12850.00000	91.64575	-48.49522	91.64575
12900.00000	91.38618	-49.43554	91.38618
12950.00000	91.20292	-49.50573	91.20292
13000.00000	90.96150	-50.42188	90.96150
13050.00000	90.83136	-49.19897	90.83136
13100.00000	90.51193	-49.60117	90.51193
13150.00000	90.33556	-49.54919	90.33556
13200.00000	90.08876	-48.78114	90.08876
13250.00000	89.78020	-49.90184	89.78020
13300.00000	89.55908	-48.78002	89.55908
13350.00000	89.41933	-50.10672	89.41933
13400.00000	89.45543	-51.62061	89.45543
13450.00000	89.19148	-50.37934	89.19148
13500.00000	89.21007	-48.51095	89.21007
13550.00000	88.84182	-48.40088	88.84182
13600.00000	88.57562	-47.56502	88.57562
13650.00000	88.25678	-47.53170	88.25678
13700.00000	87.87654	-47.80702	87.87654
13750.00000	87.60632	-48.09967	87.60632
13800.00000	87.32177	-50.22187	87.32177
13850.00000	87.31113	-50.61663	87.31113
13900.00000	87.14908	-50.18741	87.14908
13950.00000	87.12653	-49.40817	87.12653
14000.00000	87.32612	-48.22141	87.32612
14050.00000	87.36723	-46.73550	87.36723
14100.00000	87.13828	-44.92869	87.13828
14150.00000	87.15140	-44.22271	87.15140
14200.00000	87.22045	-43.15384	87.22045
14250.00000	87.42897	-40.22155	87.42897
14300.00000	87.08510	-40.01705	87.08510
14350.00000	86.97881	-39.79151	86.97881
14400.00000	86.84437	-39.71906	86.84437
14450.00000	86.82718	-39.31101	86.82718
14500.00000	86.92405	-40.20117	86.92405
14550.00000	87.48335	-38.63362	87.48335
14600.00000	87.47547	-37.43073	87.47547
14650.00000	87.73554	-35.16015	87.73554
14700.00000	87.76908	-38.06171	87.76908
14750.00000	87.82916	-35.73011	87.82916
14800.00000	87.71700	-35.95927	87.71700
14850.00000	88.03129	-35.70876	88.03129
14900.00000	88.23823	-36.14347	88.23823
14950.00000	88.40895	-36.93047	88.40895
15000.00000	88.50457	-37.49652	88.50457
15050.00000	88.65044	-37.12692	88.65044
15100.00000	88.93214	-35.68736	88.93214
15150.00000	89.21171	-36.62032	89.21171
15200.00000	89.33103	-34.03057	89.33103
15250.00000	89.28661	-33.59737	89.28661
15300.00000	89.56326	-33.89072	89.56326
15350.00000	89.60828	-33.98135	89.60828
15400.00000	89.68003	-32.61350	89.68003
15450.00000	89.87138	-33.38015	89.87138
15500.00000	90.19271	-34.46980	90.19271
15550.00000	90.67612	-35.07036	90.67612
15600.00000	91.07876	-35.65071	91.07876
15650.00000	91.53284	-33.25197	91.53284
15700.00000	91.66482	-33.96950	91.66482
15750.00000	92.07593	-32.80601	92.07593
15800.00000	92.26091	-32.48323	92.26091
15850.00000	92.71162	-34.49397	92.71162
15900.00000	92.99018	-35.45979	92.99018
15950.00000	93.30707	-35.52052	93.30707
16000.00000	93.74937	-36.88617	93.74937
16050.00000	94.07277	-37.59984	94.07277
16100.00000	94.29142	-39.83704	94.29142
16150.00000	94.72786	-41.12343	94.72786
16200.00000	95.17640	-42.64752	95.17640
16250.00000	95.58252	-43.26264	95.58252
16300.00000	96.06783	-44.72752	96.06783
16350.00000	96.27049	-45.78992	96.27049
16400.00000	96.54282	-47.50051	96.54282
16450.00000	96.92912	-49.53190	96.92912
16500.00000	97.23723	-51.35437	97.23723
16550.00000	97.55893	-53.53266	97.55893
16600.00000	97.96146	-55.52375	97.96146
16650.00000	98.26323	-57.34950	98.26323
16700.00000	98.59539	-59.25482	98.59539
16750.00000	98.81722	-61.90860	98.81722
16800.00000	99.12061	-64.42530	99.12061
16850.00000	99.51865	-66.67274	99.51865
16900.00000	99.84568	-68.78275	99.84568
16950.00000	100.11049	-70.52696	100.11049
17000.00000	100.13527	-73.08282	100.13527
17050.00000	100.51389	-75.66986	100.51389
17100.00000	100.67511	-77.61814	100.67511
17150.00000	101.05590	-80.41371	101.05590
17200.00000	101.35336	-82.50644	101.35336
17250.00000	101.46469	-85.28663	101.46469
17300.00000	101.70663	-87.95210	101.70663
17350.00000	101.75751	-90.33176	101.75751
17400.00000	102.05155	-92.68986	102.05155
17450.00000	102.21570	-95.55348	102.21570
17500.00000	102.42058	-97.43829	102.42058
17550.00000	102.61761	-100.04393	102.61761
17600.00000	102.90305	-102.30781	102.90305
17650.00000	103.00486	-105.51545	103.00486
17700.00000	103.18586	-108.24784	103.18586
17750.00000	103.50186	-110.26080	103.50186
17800.00000	103.54172	-112.72716	103.54172
17850.00000	103.72883	-114.28480	103.72883
17900.00000	103.92511	-117.15823	103.92511
17950.00000	104.12154	-120.36750	104.12154
18000.00000	104.30533	-123.64865	104.30533
18050.00000	104.61484	-125.39285	104.61484
18100.00000	104.69635	-128.01396	104.69635
18150.00000	104.84098	-130.19053	104.84098
18200.00000	104.91796	-133.32826	104.91796
18250.00000	105.15020	-135.21112	105.15020
18300.00000	105.43053	-137.68442	105.43053
18350.00000	105.56657	-139.85889	105.56657
18400.00000	105.69157	-142.49954	105.69157
18450.00000	105.84320	-146.19635	105.84320
18500.00000	106.05047	-148.75262	106.05047
18550.00000	106.27874	-150.99668	106.27874
18600.00000	106.58178	-154.20661	106.58178
18650.00000	106.65018	-156.69770	106.65018
18700.00000	106.80789	-160.10475	106.80789
18750.00000	107.05256	-162.88345	107.05256
18800.00000	107.36132	-165.58359	107.36132
18850.00000	107.41506	-169.00124	107.41506
18900.00000	107.58560	-171.87583	107.58560
18950.00000	107.75969	-175.58294	107.75969
19000.00000	107.74706	-178.36032	107.74706
19050.00000	108.03441	-181.80903	108.03441
19100.00000	108.15558	-184.89593	108.15558
19150.00000	108.42600	-188.02240	108.42600
19200.00000	108.53140	-190.99318	108.53140
19250.00000	108.63548	-195.33697	108.63548
19300.00000	108.70542	-198.18449	108.70542
19350.00000	108.85946	-201.59483	108.85946
19400.00000	108.93621	-205.11204	108.93621
19450.00000	109.13780	-207.96295	109.13780
19500.00000	109.13947	-212.20961	109.13947
19550.00000	109.27412	-215.79221	109.27412
19600.00000	109.43957	-219.92724	109.43957
19650.00000	109.46071	-223.10583	109.46071
19700.00000	109.44430	-226.80692	109.44430
19750.00000	109.47749	-229.99634	109.47749
19800.00000	109.61863	-234.77566	109.61863
19850.00000	109.67665	-238.16774	109.67665
19900.00000	109.64449	-242.82126	109.64449
19950.00000	109.62548	-246.47747	109.62548
20000.00000	109.60879	-250.37883	109.60879
20050.00000	109.58508	-254.21279	109.58508
20100.00000	109.45684	-258.09456	109.45684
20150.00000	109.44920	-261.08084	109.44920
20200.00000	109.32253	-265.58858	109.32253
20250.00000	109.14287	-269.15269	109.14287
20300.00000	108.94293	-272.76095	108.94293
20350.00000	108.86936	-276.32467	108.86936
20400.00000	108.64705	-278.95399	108.64705
20450.00000	108.39009	-282.21205	108.39009
20500.00000	108.25053	-285.55233	108.25053
20550.00000	107.83892	-287.63031	107.83892
20600.00000	107.70701	-290.00887	107.70701
20650.00000	107.51006	-292.30486	107.51006
20700.00000	107.25755	-294.35337	107.25755
20750.00000	107.11430	-296.25396	107.11430
20800.00000	106.89231	-297.60075	106.89231
20850.00000	106.79837	-299.25116	106.79837
20900.00000	106.60804	-300.51514	106.60804
20950.00000	106.46854	-301.15520	106.46854
21000.00000	106.40537	-302.06815	106.40537
21050.00000	106.51476	-302.62569	106.51476
21100.00000	106.50723	-303.22723	106.50723
21150.00000	106.64237	-304.39888	106.64237
21200.00000	106.77947	-305.21691	106.77947
21250.00000	106.92714	-307.65779	106.92714
21300.00000	107.15129	-308.61431	107.15129
21350.00000	107.31568	-310.25323	107.31568
21400.00000	107.46617	-312.61318	107.46617
21450.00000	107.66371	-314.98754	107.66371
21500.00000	107.84013	-317.82174	107.84013
21550.00000	107.89823	-320.08826	107.89823
21600.00000	108.10567	-322.85244	108.10567
21650.00000	108.16213	-325.99620	108.16213
21700.00000	108.24100	-328.46960	108.24100
21750.00000	108.33446	-331.40435	108.33446
21800.00000	108.42138	-334.26066	108.42138
21850.00000	108.38604	-336.86209	108.38604
21900.00000	108.46536	-339.81967	108.46536
21950.00000	108.47831	-342.30909	108.47831
22000.00000	108.57013	-344.99724	108.57013
22050.00000	108.55191	-347.19049	108.55191
22100.00000	108.54249	-350.08493	108.54249
22150.00000	108.54154	-352.41510	108.54154
22200.00000	108.61648	-355.22696	108.61648
22250.00000	108.60201	-357.06770	108.60201
22300.00000	108.46780	-359.79706	108.46780
22350.00000	108.59915	-362.25165	108.59915
22400.00000	108.60568	-364.81861	108.60568
22450.00000	108.58131	-366.93382	108.58131
22500.00000	108.52241	-368.17341	108.52241
22550.00000	108.58546	-370.75235	108.58546
22600.00000	108.56531	-373.72700	108.56531
22650.00000	108.60598	-375.94309	108.60598
22700.00000	108.62061	-377.61482	108.62061
22750.00000	108.64298	-378.15601	108.64298
22800.00000	108.71288	-382.05288	108.71288
22850.00000	108.82083	-385.13862	108.82083
22900.00000	108.90568	-385.68953	108.90568
22950.00000	108.99544	-387.90186	108.99544
23000.00000	109.05151	-389.25951	109.05151
23050.00000	109.04037	-392.62844	109.04037
23100.00000	109.26739	-393.89728	109.26739
23150.00000	109.18234	-395.40580	109.18234
