---ACOUSTIC CALIBRATION---
Filename: C:\Data\AZH DATA\AZH62\RightSecondary.calib
Date: 8/27/2019 4:14:50 PM
Format: 4
Probe Tube Correction File: C:\Data\Probe Tube Calibrations\50_ProbeTube.calib
Experiment VIs: 850
EPL_CFTS.exe V12.0.1 (2012)
DAQmx V9.6

Attenuation (dB): 40.000000
Min Freq (Hz): 50.000000
Max Freq (Hz): 49950.000000
Freq Step (Hz): 50.000000
Sample Rate (Hz): 100000.000000
[Smoothing]
Method=None
MA.Iterations=0
MA.Length=0
Loess.Length=0
Loess.Type=Linear
Loess.Robust=FALSE


Freq(Hz)	Mag(dB)	Phase(deg)	Unsmoothed(dB)

50.00000	104.92848	479.56235	104.92848
100.00000	72.67971	462.29815	72.67971
150.00000	65.72550	342.57291	65.72550
200.00000	61.04558	329.00725	61.04558
250.00000	60.35861	387.88768	60.35861
300.00000	70.87586	373.35415	70.87586
350.00000	54.71949	343.97466	54.71949
400.00000	71.43721	211.88260	71.43721
450.00000	45.98101	198.22042	45.98101
500.00000	71.33710	204.52019	71.33710
550.00000	62.07335	181.10606	62.07335
600.00000	78.05802	227.19281	78.05802
650.00000	66.35289	197.96600	66.35289
700.00000	78.55590	205.70527	78.55590
750.00000	69.09472	170.85010	69.09472
800.00000	80.62347	196.07773	80.62347
850.00000	70.60316	144.09158	70.60316
900.00000	76.69375	159.83734	76.69375
950.00000	66.63915	131.08046	66.63915
1000.00000	72.11692	214.86528	72.11692
1050.00000	62.15422	163.80658	62.15422
1100.00000	68.57088	243.65588	68.57088
1150.00000	66.17465	195.65395	66.17465
1200.00000	71.02169	280.33338	71.02169
1250.00000	69.81256	202.95957	69.81256
1300.00000	72.89988	265.18556	72.89988
1350.00000	71.75113	187.47061	71.75113
1400.00000	64.40065	310.01898	64.40065
1450.00000	72.36970	195.75968	72.36970
1500.00000	66.34542	169.57197	66.34542
1550.00000	72.92129	176.42981	72.92129
1600.00000	70.52766	89.28927	70.52766
1650.00000	71.82776	182.51028	71.82776
1700.00000	64.36023	86.41243	64.36023
1750.00000	70.39800	151.14298	70.39800
1800.00000	74.18335	105.67296	74.18335
1850.00000	60.08868	143.92667	60.08868
1900.00000	73.40115	108.24558	73.40115
1950.00000	66.51387	126.18280	66.51387
2000.00000	76.34664	136.88991	76.34664
2050.00000	63.34358	85.34710	63.34358
2100.00000	76.87428	118.61625	76.87428
2150.00000	67.02201	72.23117	67.02201
2200.00000	70.54676	131.24095	70.54676
2250.00000	69.27858	61.51380	69.27858
2300.00000	70.89579	121.48077	70.89579
2350.00000	70.58459	57.47461	70.58459
2400.00000	50.08960	40.87778	50.08960
2450.00000	70.17538	64.60406	70.17538
2500.00000	59.45458	119.18081	59.45458
2550.00000	69.05820	59.93528	69.05820
2600.00000	66.27531	30.72176	66.27531
2650.00000	66.37939	57.54132	66.37939
2700.00000	61.83227	-37.26355	61.83227
2750.00000	63.11328	58.91941	63.11328
2800.00000	62.53972	57.64350	62.53972
2850.00000	61.75080	46.47133	61.75080
2900.00000	66.69831	25.76402	66.69831
2950.00000	62.71116	55.44908	62.71116
3000.00000	48.43440	55.63288	48.43440
3050.00000	60.30674	51.30207	60.30674
3100.00000	60.16477	65.06895	60.16477
3150.00000	55.09146	80.24111	55.09146
3200.00000	53.24165	82.21813	53.24165
3250.00000	56.62757	58.07218	56.62757
3300.00000	53.45302	55.37304	53.45302
3350.00000	59.03058	104.55779	59.03058
3400.00000	56.78637	128.13994	56.78637
3450.00000	60.15395	142.91333	60.15395
3500.00000	61.19101	122.99817	61.19101
3550.00000	64.62844	129.43484	64.62844
3600.00000	65.03954	132.88495	65.03954
3650.00000	67.34875	110.24942	67.34875
3700.00000	70.83354	103.36193	70.83354
3750.00000	70.85225	98.14213	70.85225
3800.00000	71.97571	98.09547	71.97571
3850.00000	71.81373	94.19144	71.81373
3900.00000	73.50298	91.33587	73.50298
3950.00000	73.64533	81.44838	73.64533
4000.00000	73.45706	64.31597	73.45706
4050.00000	75.15128	62.54179	75.15128
4100.00000	75.18870	52.48318	75.18870
4150.00000	76.42507	47.53624	76.42507
4200.00000	78.38281	35.88343	78.38281
4250.00000	78.32204	27.62387	78.32204
4300.00000	79.57131	18.18048	79.57131
4350.00000	78.08297	 7.03845	78.08297
4400.00000	77.74580	 0.74190	77.74580
4450.00000	77.75901	-13.27835	77.75901
4500.00000	76.51046	-4.25820	76.51046
4550.00000	76.98798	-34.84618	76.98798
4600.00000	76.97902	-42.52237	76.97902
4650.00000	76.64986	-46.67970	76.64986
4700.00000	75.69647	-48.22466	75.69647
4750.00000	75.62245	-55.17392	75.62245
4800.00000	74.22113	-60.07549	74.22113
4850.00000	73.28420	-70.50211	73.28420
4900.00000	71.90805	-79.52428	71.90805
4950.00000	70.29692	-82.68045	70.29692
5000.00000	70.57291	-90.88932	70.57291
5050.00000	68.13252	-79.83849	68.13252
5100.00000	67.94204	-84.09370	67.94204
5150.00000	68.01264	-71.00473	68.01264
5200.00000	66.77762	-62.76533	66.77762
5250.00000	68.85255	-57.67942	68.85255
5300.00000	69.84306	-65.80566	69.84306
5350.00000	69.88718	-78.05925	69.88718
5400.00000	69.47729	-87.00633	69.47729
5450.00000	68.82188	-90.38810	68.82188
5500.00000	69.18673	-90.33483	69.18673
5550.00000	69.10494	-89.50268	69.10494
5600.00000	67.90406	-95.77809	67.90406
5650.00000	68.65385	-92.95679	68.65385
5700.00000	68.30798	-93.75634	68.30798
5750.00000	68.10872	-100.59345	68.10872
5800.00000	66.79257	-100.40832	66.79257
5850.00000	67.26835	-102.07483	67.26835
5900.00000	67.60539	-106.47761	67.60539
5950.00000	67.02047	-107.09590	67.02047
6000.00000	67.49408	-107.88433	67.49408
6050.00000	67.82984	-113.51462	67.82984
6100.00000	67.10877	-114.79599	67.10877
6150.00000	66.78558	-114.97552	66.78558
6200.00000	66.86707	-119.18330	66.86707
6250.00000	66.79982	-119.63846	66.79982
6300.00000	66.80532	-125.88402	66.80532
6350.00000	67.29230	-127.21664	67.29230
6400.00000	66.32667	-127.41626	66.32667
6450.00000	67.24944	-129.67331	67.24944
6500.00000	66.20889	-130.48069	66.20889
6550.00000	66.43557	-134.40767	66.43557
6600.00000	65.76797	-135.30297	65.76797
6650.00000	66.54126	-139.29161	66.54126
6700.00000	66.12382	-142.29392	66.12382
6750.00000	66.49344	-142.96674	66.49344
6800.00000	65.81178	-140.14470	65.81178
6850.00000	65.93089	-145.65839	65.93089
6900.00000	66.47869	-146.95211	66.47869
6950.00000	67.40701	-155.08925	67.40701
7000.00000	66.09305	-154.60744	66.09305
7050.00000	66.04165	-156.04644	66.04165
7100.00000	66.50042	-160.97820	66.50042
7150.00000	66.38064	-160.14737	66.38064
7200.00000	65.87337	-164.69195	65.87337
7250.00000	65.62834	-167.44638	65.62834
7300.00000	66.71474	-174.61983	66.71474
7350.00000	66.25898	-174.15283	66.25898
7400.00000	66.51220	-174.90398	66.51220
7450.00000	66.03067	-177.66728	66.03067
7500.00000	66.46872	-176.44008	66.46872
7550.00000	65.73665	-187.84494	65.73665
7600.00000	65.87752	-188.40291	65.87752
7650.00000	67.26555	-190.38501	67.26555
7700.00000	66.88189	-195.12625	66.88189
7750.00000	66.28259	-195.48642	66.28259
7800.00000	65.99717	-199.84554	65.99717
7850.00000	65.94026	-205.17317	65.94026
7900.00000	65.76555	-209.12776	65.76555
7950.00000	65.73467	-212.78832	65.73467
8000.00000	66.17651	-209.88253	66.17651
8050.00000	65.34662	-220.48289	65.34662
8100.00000	65.48235	-217.66371	65.48235
8150.00000	64.86171	-225.71241	64.86171
8200.00000	65.53814	-230.85996	65.53814
8250.00000	65.20712	-231.35549	65.20712
8300.00000	65.53714	-235.25979	65.53714
8350.00000	63.99965	-229.76976	63.99965
8400.00000	64.16309	-244.59338	64.16309
8450.00000	64.27682	-248.12395	64.27682
8500.00000	64.26126	-252.44491	64.26126
8550.00000	63.73692	-249.02136	63.73692
8600.00000	63.32387	-253.81528	63.32387
8650.00000	61.29787	-261.85408	61.29787
8700.00000	62.18607	-257.80229	62.18607
8750.00000	62.52518	-260.45883	62.52518
8800.00000	61.21332	-262.04949	61.21332
8850.00000	61.36767	-263.35001	61.36767
8900.00000	60.77373	-272.03484	60.77373
8950.00000	60.70754	-272.27035	60.70754
9000.00000	61.43672	-275.87093	61.43672
9050.00000	61.14242	-278.47701	61.14242
9100.00000	59.35896	-276.43401	59.35896
9150.00000	60.01771	-269.90052	60.01771
9200.00000	58.93089	-285.38785	58.93089
9250.00000	59.91818	-279.81856	59.91818
9300.00000	59.32002	-296.04769	59.32002
9350.00000	58.30170	-289.36099	58.30170
9400.00000	58.09202	-289.82056	58.09202
9450.00000	58.52365	-291.15705	58.52365
9500.00000	57.23915	-290.22496	57.23915
9550.00000	58.18575	-300.54897	58.18575
9600.00000	58.10375	-296.07795	58.10375
9650.00000	58.06776	-282.58819	58.06776
9700.00000	57.79541	-293.14615	57.79541
9750.00000	56.02851	-299.19207	56.02851
9800.00000	57.82089	-297.97922	57.82089
9850.00000	57.78833	-303.18160	57.78833
9900.00000	56.77917	-287.93784	56.77917
9950.00000	56.64403	-305.93807	56.64403
10000.00000	53.09402	-317.03621	53.09402
10050.00000	55.42921	-306.00998	55.42921
10100.00000	55.71967	-299.10606	55.71967
10150.00000	55.84471	-304.62087	55.84471
10200.00000	54.55228	-296.77950	54.55228
10250.00000	55.00806	-318.29750	55.00806
10300.00000	55.74267	-314.99111	55.74267
10350.00000	54.96838	-310.85434	54.96838
10400.00000	54.55446	-310.85545	54.55446
10450.00000	53.92481	-325.36680	53.92481
10500.00000	55.60197	-326.41976	55.60197
10550.00000	54.02212	-316.50397	54.02212
10600.00000	53.90597	-316.84201	53.90597
10650.00000	54.47228	-323.42800	54.47228
10700.00000	54.86500	-331.60873	54.86500
10750.00000	54.52563	-327.20530	54.52563
10800.00000	55.23436	-326.49032	55.23436
10850.00000	53.72844	-340.59559	53.72844
10900.00000	54.66949	-338.30767	54.66949
10950.00000	53.60593	-334.15110	53.60593
11000.00000	53.60724	-335.36668	53.60724
11050.00000	53.54719	-339.80311	53.54719
11100.00000	52.51506	-346.25719	52.51506
11150.00000	53.70104	-340.46586	53.70104
11200.00000	53.14849	-342.27753	53.14849
11250.00000	52.72692	-352.60058	52.72692
11300.00000	51.10829	-354.94966	51.10829
11350.00000	52.14744	-354.23710	52.14744
11400.00000	51.67689	-349.33370	51.67689
11450.00000	52.42741	-353.78090	52.42741
11500.00000	52.44691	-353.26825	52.44691
11550.00000	51.33396	-360.17202	51.33396
11600.00000	51.44268	-356.66939	51.44268
11650.00000	49.75768	-352.25725	49.75768
11700.00000	51.18793	-348.13617	51.18793
11750.00000	50.20221	-360.41308	50.20221
11800.00000	51.42395	-357.26410	51.42395
11850.00000	50.76014	-361.31248	50.76014
11900.00000	49.87928	-356.61477	49.87928
11950.00000	52.13795	-365.36087	52.13795
12000.00000	52.62013	-368.13301	52.62013
12050.00000	51.20536	-356.78048	51.20536
12100.00000	50.81737	-353.30341	50.81737
12150.00000	51.17700	-376.27851	51.17700
12200.00000	50.35786	-368.06543	50.35786
12250.00000	49.99122	-340.52199	49.99122
12300.00000	51.59286	-373.84718	51.59286
12350.00000	50.02480	-387.75729	50.02480
12400.00000	52.48217	-373.69892	52.48217
12450.00000	50.94437	-352.82373	50.94437
12500.00000	47.08725	-394.56259	47.08725
12550.00000	47.42642	-394.19368	47.42642
12600.00000	49.47414	-372.28605	49.47414
12650.00000	49.49295	-380.96556	49.49295
12700.00000	49.61704	-405.35091	49.61704
12750.00000	49.82206	-389.30737	49.82206
12800.00000	52.21179	-396.01320	52.21179
12850.00000	45.28661	-393.03296	45.28661
12900.00000	49.77737	-402.08022	49.77737
12950.00000	47.98312	-389.57072	47.98312
13000.00000	46.98665	-400.86945	46.98665
13050.00000	43.65754	-446.63877	43.65754
13100.00000	47.01460	-424.04590	47.01460
13150.00000	46.27554	-386.68045	46.27554
13200.00000	47.82913	-422.05070	47.82913
13250.00000	39.44097	-447.06951	39.44097
13300.00000	46.96047	-416.52677	46.96047
13350.00000	42.01603	-365.17164	42.01603
13400.00000	40.08518	-386.90714	40.08518
13450.00000	48.43273	-406.62774	48.43273
13500.00000	47.87234	-411.22551	47.87234
13550.00000	44.78756	-407.97574	44.78756
13600.00000	42.10460	-394.26238	42.10460
13650.00000	47.35604	-419.73856	47.35604
13700.00000	45.74847	-322.48075	45.74847
13750.00000	45.37867	-68.55409	45.37867
13800.00000	45.67080	-83.09653	45.67080
13850.00000	43.87674	22.54496	43.87674
13900.00000	48.01653	-36.22608	48.01653
13950.00000	46.28278	13.88638	46.28278
14000.00000	47.58628	-19.37712	47.58628
14050.00000	50.49611	-48.99782	50.49611
14100.00000	50.18012	27.01550	50.18012
14150.00000	47.42264	 0.64709	47.42264
14200.00000	45.67579	-37.86997	45.67579
14250.00000	50.89720	-62.04077	50.89720
14300.00000	41.74086	-15.56321	41.74086
14350.00000	45.00139	263.90618	45.00139
14400.00000	48.14231	334.42115	48.14231
14450.00000	37.41972	581.54936	37.41972
14500.00000	32.08701	860.12595	32.08701
14550.00000	44.58644	939.79089	44.58644
14600.00000	45.30548	1044.11205	45.30548
14650.00000	44.48218	1249.05564	44.48218
14700.00000	42.36425	1489.94151	42.36425
14750.00000	47.12951	1427.65893	47.12951
14800.00000	49.64342	1366.48454	49.64342
14850.00000	47.73642	1462.34917	47.73642
14900.00000	48.32067	1416.80448	48.32067
14950.00000	50.65457	1395.38075	50.65457
15000.00000	49.49495	1426.44890	49.49495
15050.00000	54.50597	1714.08700	54.50597
15100.00000	49.24371	1785.17155	49.24371
15150.00000	42.57207	2034.87073	42.57207
15200.00000	52.77736	2094.76283	52.77736
15250.00000	48.24035	2176.81045	48.24035
15300.00000	41.48982	2441.24314	41.48982
15350.00000	47.79262	2462.98348	47.79262
15400.00000	50.28705	2483.59369	50.28705
15450.00000	41.21507	2502.56223	41.21507
15500.00000	47.38382	2721.74762	47.38382
15550.00000	45.55508	2869.11734	45.55508
15600.00000	47.61302	2883.12550	47.61302
15650.00000	13.00176	3112.98138	13.00176
15700.00000	52.43055	3164.39108	52.43055
15750.00000	51.49644	3170.53284	51.49644
15800.00000	52.77635	3139.49716	52.77635
15850.00000	55.10549	3211.07168	55.10549
15900.00000	46.70103	3253.82224	46.70103
15950.00000	51.53047	3543.29281	51.53047
16000.00000	49.84896	3587.98471	49.84896
16050.00000	49.57976	3599.68055	49.57976
16100.00000	52.75231	3813.68914	52.75231
16150.00000	47.48440	3880.66145	47.48440
16200.00000	51.91670	3891.84867	51.91670
16250.00000	53.93570	3921.91087	53.93570
16300.00000	48.36706	4150.79859	48.36706
16350.00000	56.12349	4301.09840	56.12349
16400.00000	57.96934	4278.91602	57.96934
16450.00000	45.31240	4301.25679	45.31240
16500.00000	50.51679	4252.67311	50.51679
16550.00000	54.00907	4291.84344	54.00907
16600.00000	49.75688	4289.42474	49.75688
16650.00000	55.16444	4294.68836	55.16444
16700.00000	54.90644	4282.77046	54.90644
16750.00000	60.34423	4239.56796	60.34423
16800.00000	51.54781	4245.19489	51.54781
16850.00000	45.32515	4351.78573	45.32515
16900.00000	57.90473	4591.26343	57.90473
16950.00000	51.53881	4574.61845	51.53881
17000.00000	48.36110	4593.67831	48.36110
17050.00000	55.43636	4567.80506	55.43636
17100.00000	57.86892	4603.38860	57.86892
17150.00000	58.27261	4574.92944	58.27261
17200.00000	55.54786	4642.08073	55.54786
17250.00000	58.93618	4609.80275	58.93618
17300.00000	54.52520	4572.89248	54.52520
17350.00000	56.78919	4568.10470	56.78919
17400.00000	53.66042	4572.64570	53.66042
17450.00000	57.59140	4537.65842	57.59140
17500.00000	56.94148	4606.17879	56.94148
17550.00000	52.01516	4557.80678	52.01516
17600.00000	59.84078	4573.90682	59.84078
17650.00000	46.04919	4575.20907	46.04919
17700.00000	54.87400	4595.36674	54.87400
17750.00000	58.12390	4565.34115	58.12390
17800.00000	56.81221	4567.76365	56.81221
17850.00000	57.09061	4580.20134	57.09061
17900.00000	59.35595	4575.70939	59.35595
17950.00000	58.95430	4563.83432	58.95430
18000.00000	60.55756	4565.96448	60.55756
18050.00000	57.77633	4564.54591	57.77633
18100.00000	59.36393	4529.56887	59.36393
18150.00000	59.34270	4545.09042	59.34270
18200.00000	57.39885	4552.04304	57.39885
18250.00000	52.71787	4561.73746	52.71787
18300.00000	58.86277	4527.50406	58.86277
18350.00000	58.37653	4576.34189	58.37653
18400.00000	59.03586	4548.52419	59.03586
18450.00000	59.42853	4556.97331	59.42853
18500.00000	52.19986	4547.48530	52.19986
18550.00000	61.15876	4504.14398	61.15876
18600.00000	61.00083	4555.74144	61.00083
18650.00000	56.69522	4535.06915	56.69522
18700.00000	58.26982	4535.70906	58.26982
18750.00000	59.92582	4503.69974	59.92582
18800.00000	54.47292	4514.50398	54.47292
18850.00000	59.99399	4536.14198	59.99399
18900.00000	59.03462	4539.84540	59.03462
18950.00000	59.91257	4514.84508	59.91257
19000.00000	56.60000	4526.04489	56.60000
19050.00000	60.20270	4496.24174	60.20270
19100.00000	61.63921	4513.02403	61.63921
19150.00000	60.21135	4516.39458	60.21135
19200.00000	61.75104	4504.18681	61.75104
19250.00000	62.11842	4497.57473	62.11842
19300.00000	62.02454	4486.56020	62.02454
19350.00000	58.73790	4480.41697	58.73790
19400.00000	60.52527	4486.49380	60.52527
19450.00000	60.04472	4483.72849	60.04472
19500.00000	60.74782	4488.57255	60.74782
19550.00000	60.90645	4469.53074	60.90645
19600.00000	60.66757	4491.09520	60.66757
19650.00000	58.88182	4472.33588	58.88182
19700.00000	62.43608	4473.69159	62.43608
19750.00000	61.30753	4475.00057	61.30753
19800.00000	63.44482	4461.63043	63.44482
19850.00000	59.66361	4465.27127	59.66361
19900.00000	61.54977	4455.19246	61.54977
19950.00000	59.60740	4456.87302	59.60740
20000.00000	58.63913	4442.16942	58.63913
20050.00000	60.73410	4450.09266	60.73410
20100.00000	59.62307	4447.52542	59.62307
20150.00000	57.91382	4446.50844	57.91382
20200.00000	62.18429	4454.49005	62.18429
20250.00000	61.16659	4435.16745	61.16659
20300.00000	59.56014	4436.26459	59.56014
20350.00000	60.43944	4446.33665	60.43944
20400.00000	59.12997	4447.33347	59.12997
20450.00000	59.80778	4420.40292	59.80778
20500.00000	59.77811	4421.28392	59.77811
20550.00000	59.28624	4418.17931	59.28624
20600.00000	59.47413	4435.94036	59.47413
20650.00000	60.00901	4413.76938	60.00901
20700.00000	61.18356	4423.71205	61.18356
20750.00000	56.99412	4411.67616	56.99412
20800.00000	60.07663	4410.11637	60.07663
20850.00000	57.58132	4423.04433	57.58132
20900.00000	60.34207	4414.31207	60.34207
20950.00000	57.57728	4420.80418	57.57728
21000.00000	58.18310	4408.16470	58.18310
21050.00000	58.12382	4421.50845	58.12382
21100.00000	59.07498	4406.55142	59.07498
21150.00000	60.08001	4417.61120	60.08001
21200.00000	57.04582	4407.94871	57.04582
21250.00000	58.81758	4411.24579	58.81758
21300.00000	57.67902	4418.89605	57.67902
21350.00000	60.77706	4752.97843	60.77706
21400.00000	59.71162	4766.14374	59.71162
21450.00000	59.51500	4761.62770	59.51500
21500.00000	59.96575	4761.92963	59.96575
21550.00000	60.88938	4747.22363	60.88938
21600.00000	59.74864	4756.14495	59.74864
21650.00000	60.35026	4742.09655	60.35026
21700.00000	60.56696	4747.95183	60.56696
21750.00000	60.11406	4738.14356	60.11406
21800.00000	63.73145	4756.56188	63.73145
21850.00000	58.10904	4743.90916	58.10904
21900.00000	62.15668	4726.33415	62.15668
21950.00000	60.40231	4723.16554	60.40231
22000.00000	62.99469	4719.52023	62.99469
22050.00000	60.61196	4723.00200	60.61196
22100.00000	61.71446	4734.57108	61.71446
22150.00000	60.85248	5072.65998	60.85248
22200.00000	61.88109	5084.63194	61.88109
22250.00000	59.74279	5071.90563	59.74279
22300.00000	60.59812	5067.54998	60.59812
22350.00000	61.90087	5071.07187	61.90087
22400.00000	61.08455	5081.79716	61.08455
22450.00000	61.44996	5414.17378	61.44996
22500.00000	60.43458	5400.68344	60.43458
22550.00000	62.05260	5386.82014	62.05260
22600.00000	64.76954	5412.21914	64.76954
22650.00000	61.19053	5442.16583	61.19053
22700.00000	62.28638	5772.60617	62.28638
22750.00000	57.64656	5798.39195	57.64656
22800.00000	65.46200	6125.93415	65.46200
22850.00000	54.36777	6157.59351	54.36777
22900.00000	60.18474	6484.77516	60.18474
22950.00000	53.31598	6529.70541	53.31598
23000.00000	65.67357	6845.81925	65.67357
23050.00000	63.27657	6854.20502	63.27657
23100.00000	66.43522	6855.91255	66.43522
23150.00000	59.69140	7176.99718	59.69140
23200.00000	63.68703	7193.36211	63.68703
23250.00000	59.47303	7231.22006	59.47303
23300.00000	63.07347	7516.99829	63.07347
23350.00000	63.26420	7534.83882	63.26420
23400.00000	63.60927	7538.04281	63.60927
23450.00000	62.27767	7556.60303	62.27767
23500.00000	56.87152	7859.56096	56.87152
23550.00000	63.51562	7917.62514	63.51562
