---ACOUSTIC CALIBRATION---
Filename: C:\Data\AZH DATA\AZH62\RightSecondary.calib
Date: 8/27/2019 4:13:32 PM
Format: 4
Probe Tube Correction File: C:\Data\Probe Tube Calibrations\50_ProbeTube.calib
Experiment VIs: 850
EPL_CFTS.exe V12.0.1 (2012)
DAQmx V9.6

Attenuation (dB): 40.000000
Min Freq (Hz): 50.000000
Max Freq (Hz): 49950.000000
Freq Step (Hz): 50.000000
Sample Rate (Hz): 100000.000000
[Smoothing]
Method=None
MA.Iterations=0
MA.Length=0
Loess.Length=0
Loess.Type=Linear
Loess.Robust=FALSE


Freq(Hz)	Mag(dB)	Phase(deg)	Unsmoothed(dB)

50.00000	97.52136	442.87834	97.52136
100.00000	80.48762	386.49275	80.48762
150.00000	65.62644	448.04501	65.62644
200.00000	69.19050	445.57477	69.19050
250.00000	67.35245	349.70660	67.35245
300.00000	75.13723	182.86078	75.13723
350.00000	57.19204	327.94072	57.19204
400.00000	72.73113	254.06095	72.73113
450.00000	57.98466	258.34246	57.98466
500.00000	68.56952	369.47493	68.56952
550.00000	49.89758	341.79714	49.89758
600.00000	75.30654	177.87395	75.30654
650.00000	64.51709	176.85781	64.51709
700.00000	79.91695	220.20936	79.91695
750.00000	71.75303	184.37102	71.75303
800.00000	74.93443	278.19719	74.93443
850.00000	63.43799	198.95420	63.43799
900.00000	68.81012	118.24907	68.81012
950.00000	63.22612	123.56958	63.22612
1000.00000	72.86399	215.17736	72.86399
1050.00000	63.05104	175.07093	63.05104
1100.00000	63.89260	314.31126	63.89260
1150.00000	61.64461	233.36842	61.64461
1200.00000	68.51574	170.24634	68.51574
1250.00000	63.84592	157.20528	63.84592
1300.00000	71.49376	245.22933	71.49376
1350.00000	72.12419	196.07048	72.12419
1400.00000	69.00373	57.87820	69.00373
1450.00000	68.32849	211.32878	68.32849
1500.00000	71.47486	108.53034	71.47486
1550.00000	69.58898	176.92653	69.58898
1600.00000	64.15984	162.88036	64.15984
1650.00000	72.66163	165.29425	72.66163
1700.00000	70.86668	77.04877	70.86668
1750.00000	65.60911	178.79463	65.60911
1800.00000	75.57447	156.69913	75.57447
1850.00000	72.13304	129.70058	72.13304
1900.00000	68.38603	147.12442	68.38603
1950.00000	69.87895	137.49357	69.87895
2000.00000	75.81733	133.23456	75.81733
2050.00000	63.77773	81.72886	63.77773
2100.00000	70.55614	181.31302	70.55614
2150.00000	72.19636	86.34198	72.19636
2200.00000	71.08336	50.88105	71.08336
2250.00000	66.53083	102.34923	66.53083
2300.00000	70.59311	98.10521	70.59311
2350.00000	68.96498	58.11973	68.96498
2400.00000	68.87944	-0.98572	68.87944
2450.00000	70.06083	81.03205	70.06083
2500.00000	70.96180	30.01606	70.96180
2550.00000	62.00499	61.91739	62.00499
2600.00000	65.19066	44.45840	65.19066
2650.00000	66.80281	62.93695	66.80281
2700.00000	65.85800	24.40648	65.85800
2750.00000	56.33319	120.98372	56.33319
2800.00000	53.39334	33.07169	53.39334
2850.00000	47.63160	63.78437	47.63160
2900.00000	57.89733	141.33223	57.89733
2950.00000	54.48010	301.60036	54.48010
3000.00000	53.59843	217.40209	53.59843
3050.00000	55.12445	377.01597	55.12445
3100.00000	60.88463	387.65688	60.88463
3150.00000	58.93530	420.96954	58.93530
3200.00000	63.34467	457.91643	63.34467
3250.00000	52.53439	588.07847	52.53439
3300.00000	58.87530	473.08773	58.87530
3350.00000	47.46268	336.33653	47.46268
3400.00000	65.94652	534.23654	65.94652
3450.00000	60.54560	468.42337	60.54560
3500.00000	66.89870	530.66111	66.89870
3550.00000	63.83128	489.41227	63.83128
3600.00000	67.19259	458.77589	67.19259
3650.00000	69.60290	456.82664	69.60290
3700.00000	66.66373	425.73511	66.66373
3750.00000	68.05295	452.26141	68.05295
3800.00000	72.60709	455.21665	72.60709
3850.00000	74.10990	456.60980	74.10990
3900.00000	73.34656	442.68277	73.34656
3950.00000	73.65843	446.36291	73.65843
4000.00000	72.27228	413.56127	72.27228
4050.00000	75.47781	419.44468	75.47781
4100.00000	75.54316	435.32769	75.54316
4150.00000	76.78751	412.10530	76.78751
4200.00000	79.49661	392.64004	79.49661
4250.00000	78.99700	390.36025	78.99700
4300.00000	79.50215	372.98911	79.50215
4350.00000	78.84901	372.26149	78.84901
4400.00000	78.85259	362.97383	78.85259
4450.00000	79.21645	345.04260	79.21645
4500.00000	80.74574	344.46562	80.74574
4550.00000	76.54517	316.33219	76.54517
4600.00000	75.29245	305.23144	75.29245
4650.00000	75.78871	315.46216	75.78871
4700.00000	76.03430	306.39007	76.03430
4750.00000	74.52728	302.46432	74.52728
4800.00000	74.47185	296.33766	74.47185
4850.00000	72.29706	295.47629	72.29706
4900.00000	73.76748	288.04807	73.76748
4950.00000	69.24022	262.58668	69.24022
5000.00000	71.79585	279.69942	71.79585
5050.00000	68.33536	277.11928	68.33536
5100.00000	66.15715	271.69757	66.15715
5150.00000	69.77694	279.40404	69.77694
5200.00000	65.40921	304.39381	65.40921
5250.00000	68.80376	296.82395	68.80376
5300.00000	70.63338	305.66609	70.63338
5350.00000	69.55334	314.45495	69.55334
5400.00000	72.66948	258.93190	72.66948
5450.00000	68.44185	277.77685	68.44185
5500.00000	69.95508	266.39374	69.95508
5550.00000	69.14792	264.85215	69.14792
5600.00000	68.09966	264.64984	68.09966
5650.00000	69.14236	263.57376	69.14236
5700.00000	68.99806	271.37637	68.99806
5750.00000	61.43637	283.96059	61.43637
5800.00000	72.25839	243.22494	72.25839
5850.00000	69.50162	276.41017	69.50162
5900.00000	66.58336	264.65936	66.58336
5950.00000	69.90162	228.34127	69.90162
6000.00000	65.80189	270.70263	65.80189
6050.00000	69.99203	199.23482	69.99203
6100.00000	65.20133	250.93046	65.20133
6150.00000	68.02059	236.28468	68.02059
6200.00000	64.91279	253.25596	64.91279
6250.00000	69.01301	241.10775	69.01301
6300.00000	65.94697	234.97762	65.94697
6350.00000	69.83527	234.02811	69.83527
6400.00000	61.74217	222.29402	61.74217
6450.00000	68.16737	223.43490	68.16737
6500.00000	63.51751	238.86981	63.51751
6550.00000	68.11242	218.27262	68.11242
6600.00000	66.68871	232.05470	66.68871
6650.00000	66.12254	229.09406	66.12254
6700.00000	67.40446	210.13375	67.40446
6750.00000	64.26064	226.47001	64.26064
6800.00000	66.89014	217.86538	66.89014
6850.00000	67.65946	212.64653	67.65946
6900.00000	66.08950	195.76268	66.08950
6950.00000	69.21813	214.01241	69.21813
7000.00000	67.87364	187.30293	67.87364
7050.00000	66.33569	206.19198	66.33569
7100.00000	66.84758	198.52395	66.84758
7150.00000	64.47133	201.84658	64.47133
7200.00000	68.30865	187.22982	68.30865
7250.00000	66.86490	191.89223	66.86490
7300.00000	65.30109	193.05221	65.30109
7350.00000	65.84947	185.94777	65.84947
7400.00000	66.25288	179.87255	66.25288
7450.00000	65.61029	185.43653	65.61029
7500.00000	67.06392	178.94633	67.06392
7550.00000	66.91409	173.80925	66.91409
7600.00000	66.42586	167.25903	66.42586
7650.00000	65.86367	171.68961	65.86367
7700.00000	67.42763	174.30822	67.42763
7750.00000	65.64493	161.75639	65.64493
7800.00000	64.86260	159.50300	64.86260
7850.00000	64.62789	159.25128	64.62789
7900.00000	66.53529	151.35606	66.53529
7950.00000	64.56857	149.34486	64.56857
8000.00000	66.40919	145.11611	66.40919
8050.00000	65.85009	154.77944	65.85009
8100.00000	64.65576	140.73251	64.65576
8150.00000	65.60669	135.19974	65.60669
8200.00000	65.49233	128.88190	65.49233
8250.00000	64.31671	133.29710	64.31671
8300.00000	64.93743	130.89981	64.93743
8350.00000	64.42313	120.01844	64.42313
8400.00000	63.22656	109.55400	63.22656
8450.00000	64.42185	113.06011	64.42185
8500.00000	62.65490	105.52531	62.65490
8550.00000	63.30751	112.72819	63.30751
8600.00000	61.41843	99.69397	61.41843
8650.00000	61.67103	110.88332	61.67103
8700.00000	62.23137	93.30125	62.23137
8750.00000	62.23372	94.20731	62.23372
8800.00000	61.98069	95.96938	61.98069
8850.00000	61.24804	93.82964	61.24804
8900.00000	61.54268	92.43786	61.54268
8950.00000	61.25150	93.08438	61.25150
9000.00000	59.00878	87.57804	59.00878
9050.00000	60.58199	83.30271	60.58199
9100.00000	59.15081	82.40872	59.15081
9150.00000	57.45972	91.42217	57.45972
9200.00000	59.78763	63.85319	59.78763
9250.00000	59.35636	77.91136	59.35636
9300.00000	58.51148	80.07307	58.51148
9350.00000	59.58797	72.53724	59.58797
9400.00000	57.49447	77.59021	57.49447
9450.00000	57.67074	79.86433	57.67074
9500.00000	57.28664	73.13204	57.28664
9550.00000	57.09513	54.84248	57.09513
9600.00000	54.28208	75.57876	54.28208
9650.00000	57.24952	70.72000	57.24952
9700.00000	55.94157	72.44301	55.94157
9750.00000	55.94466	64.54893	55.94466
9800.00000	58.22533	60.90422	58.22533
9850.00000	57.43791	61.91002	57.43791
9900.00000	57.77535	65.37521	57.77535
9950.00000	55.05427	74.49834	55.05427
10000.00000	56.19942	50.94585	56.19942
10050.00000	56.51017	57.40518	56.51017
10100.00000	56.60067	48.89473	56.60067
10150.00000	53.23987	46.70927	53.23987
10200.00000	53.87337	53.58841	53.87337
10250.00000	57.41446	40.00461	57.41446
10300.00000	54.25269	39.81366	54.25269
10350.00000	53.87793	38.53085	53.87793
10400.00000	55.72073	46.56959	55.72073
10450.00000	55.19762	36.80143	55.19762
10500.00000	52.94767	37.50929	52.94767
10550.00000	54.83281	34.72563	54.83281
10600.00000	52.87017	32.98359	52.87017
10650.00000	54.19333	33.11796	54.19333
10700.00000	53.42289	23.79444	53.42289
10750.00000	55.76022	33.27737	55.76022
10800.00000	53.58773	24.00005	53.58773
10850.00000	52.54280	26.33800	52.54280
10900.00000	51.50205	21.04141	51.50205
10950.00000	54.60953	24.48047	54.60953
11000.00000	53.11093	21.56089	53.11093
11050.00000	53.53417	19.74056	53.53417
11100.00000	52.60908	19.61736	52.60908
11150.00000	52.46412	10.42990	52.46412
11200.00000	52.52956	17.27639	52.52956
11250.00000	52.42148	13.93920	52.42148
11300.00000	52.03073	20.72423	52.03073
11350.00000	51.86105	 1.32869	51.86105
11400.00000	50.92437	 8.68283	50.92437
11450.00000	50.29468	 1.01199	50.29468
11500.00000	50.81309	14.36190	50.81309
11550.00000	49.35069	 7.90383	49.35069
11600.00000	51.55313	12.86059	51.55313
11650.00000	50.51716	 3.52049	50.51716
11700.00000	50.46895	 8.03702	50.46895
11750.00000	51.11377	-9.96816	51.11377
11800.00000	50.87046	 3.07960	50.87046
11850.00000	52.93798	-3.44150	52.93798
11900.00000	49.78120	 4.47587	49.78120
11950.00000	51.90592	-6.58902	51.90592
12000.00000	47.77339	-6.03628	47.77339
12050.00000	50.64718	-17.20915	50.64718
12100.00000	49.71958	-8.02736	49.71958
12150.00000	48.99322	-17.54259	48.99322
12200.00000	52.13134	-5.54007	52.13134
12250.00000	51.89564	-1.29284	51.89564
12300.00000	50.01985	-12.71195	50.01985
12350.00000	47.93650	-6.35585	47.93650
12400.00000	49.91357	-10.76512	49.91357
12450.00000	51.17124	-16.08320	51.17124
12500.00000	49.93905	-11.75231	49.93905
12550.00000	48.31650	-39.72275	48.31650
12600.00000	48.88470	-15.28576	48.88470
12650.00000	49.36266	-16.20856	49.36266
12700.00000	46.10319	-37.69522	46.10319
12750.00000	50.56826	-33.93689	50.56826
12800.00000	49.83188	-28.41649	49.83188
12850.00000	49.01947	-53.00545	49.01947
12900.00000	49.61696	-40.13372	49.61696
12950.00000	48.41656	-64.30488	48.41656
13000.00000	51.43746	-41.96864	51.43746
13050.00000	50.38903	-40.82177	50.38903
13100.00000	44.88006	-53.23160	44.88006
13150.00000	45.02617	-33.61987	45.02617
13200.00000	49.78493	-35.64041	49.78493
13250.00000	50.23938	-53.70753	50.23938
13300.00000	48.89416	-67.74196	48.89416
13350.00000	48.82861	-29.39729	48.82861
13400.00000	46.66108	-53.65006	46.66108
13450.00000	47.72081	-80.05063	47.72081
13500.00000	46.34442	-44.01846	46.34442
13550.00000	44.68139	-18.76196	44.68139
13600.00000	45.17130	-2.78517	45.17130
13650.00000	45.73994	-69.30763	45.73994
13700.00000	44.21615	-30.12166	44.21615
13750.00000	47.45731	-19.76212	47.45731
13800.00000	38.76587	-27.64510	38.76587
13850.00000	40.41818	-41.73878	40.41818
13900.00000	49.77648	-64.31637	49.77648
13950.00000	44.12636	-15.07474	44.12636
14000.00000	50.80978	-70.63361	50.80978
14050.00000	44.24885	 2.16971	44.24885
14100.00000	45.91135	12.50438	45.91135
14150.00000	45.12195	232.82399	45.12195
14200.00000	35.81707	193.69907	35.81707
14250.00000	51.17755	306.17142	51.17755
14300.00000	38.98113	490.66699	38.98113
14350.00000	51.59267	611.57686	51.59267
14400.00000	47.61817	671.55642	47.61817
14450.00000	41.30360	624.44182	41.30360
14500.00000	49.06646	616.82198	49.06646
14550.00000	47.56439	728.84279	47.56439
14600.00000	41.96827	720.43782	41.96827
14650.00000	37.86708	1004.17279	37.86708
14700.00000	49.89779	1017.45955	49.89779
14750.00000	38.06277	1014.82408	38.06277
14800.00000	27.54520	1141.08941	27.54520
14850.00000	40.43217	1368.13678	40.43217
14900.00000	46.51846	1377.50654	46.51846
14950.00000	44.27612	1374.84582	44.27612
15000.00000	46.09710	1425.30311	46.09710
15050.00000	52.11447	1383.28602	52.11447
15100.00000	51.40587	1450.00268	51.40587
15150.00000	47.28028	1402.82574	47.28028
15200.00000	52.52524	1371.78563	52.52524
15250.00000	45.40608	1656.63262	45.40608
15300.00000	41.90344	1826.76203	41.90344
15350.00000	37.52551	2073.46653	37.52551
15400.00000	43.84934	2138.98608	43.84934
15450.00000	44.96238	2410.43894	44.96238
15500.00000	39.37751	2553.62391	39.37751
15550.00000	45.92425	2529.83358	45.92425
15600.00000	50.20739	2498.64461	50.20739
15650.00000	39.44085	2611.25313	39.44085
15700.00000	52.51947	2888.44217	52.51947
15750.00000	51.95374	3178.35005	51.95374
15800.00000	45.02096	3158.58595	45.02096
15850.00000	42.44807	3273.63909	42.44807
15900.00000	56.75119	3562.09291	56.75119
15950.00000	44.32702	3676.16481	44.32702
16000.00000	51.84824	3960.82140	51.84824
16050.00000	47.28075	4248.82602	47.28075
16100.00000	52.88907	4259.13173	52.88907
16150.00000	45.69593	4303.72732	45.69593
16200.00000	51.59742	4269.56166	51.59742
16250.00000	54.74058	4306.06117	54.74058
16300.00000	53.25721	4245.74775	53.25721
16350.00000	47.04437	4251.62632	47.04437
16400.00000	44.89178	4292.55285	44.89178
16450.00000	49.95957	4232.49589	49.95957
16500.00000	55.45857	4255.81799	55.45857
16550.00000	54.46386	4259.52467	54.46386
16600.00000	48.95730	4303.82899	48.95730
16650.00000	54.70662	4269.89857	54.70662
16700.00000	48.90840	4296.24311	48.90840
16750.00000	59.63601	4280.14642	59.63601
16800.00000	55.06661	4259.49909	55.06661
16850.00000	51.67956	4314.89351	51.67956
16900.00000	51.25051	4267.85995	51.25051
16950.00000	50.39375	4232.11807	50.39375
17000.00000	55.79881	4277.80671	55.79881
17050.00000	54.83150	4578.35705	54.83150
17100.00000	51.39476	4615.61328	51.39476
17150.00000	47.52127	4639.84000	47.52127
17200.00000	55.02059	4931.44931	55.02059
17250.00000	52.86882	4957.07122	52.86882
17300.00000	54.94222	4916.47295	54.94222
17350.00000	55.43566	4937.15908	55.43566
17400.00000	56.48627	4949.06066	56.48627
17450.00000	55.78968	4918.25690	55.78968
17500.00000	56.38612	4943.38257	56.38612
17550.00000	55.95322	4926.82502	55.95322
17600.00000	58.42999	4918.21884	58.42999
17650.00000	54.50808	4914.36118	54.50808
17700.00000	54.30971	4906.02656	54.30971
17750.00000	54.71484	4900.87203	54.71484
17800.00000	56.03908	4914.67623	56.03908
17850.00000	50.52071	4958.60424	50.52071
17900.00000	55.68898	4934.64575	55.68898
17950.00000	49.08832	4890.01580	49.08832
18000.00000	56.52739	4891.05550	56.52739
18050.00000	52.84583	4911.45158	52.84583
18100.00000	56.21864	4879.64041	56.21864
18150.00000	60.51869	4908.92516	60.51869
18200.00000	59.73451	4909.16594	59.73451
18250.00000	58.39733	4921.15738	58.39733
18300.00000	56.70118	4916.94909	56.70118
18350.00000	60.80327	4933.41609	60.80327
18400.00000	57.74330	4892.15231	57.74330
18450.00000	61.51341	4898.84902	61.51341
18500.00000	56.68720	4929.64474	56.68720
18550.00000	56.64312	4943.21034	56.64312
18600.00000	60.45783	5254.63541	60.45783
18650.00000	56.49123	5227.16528	56.49123
18700.00000	58.49554	5224.09800	58.49554
18750.00000	62.80724	5247.58805	62.80724
18800.00000	60.01880	5239.30273	60.01880
18850.00000	60.12779	5237.88447	60.12779
18900.00000	59.25392	5215.40887	59.25392
18950.00000	61.41904	5236.28327	61.41904
19000.00000	60.10070	5253.00360	60.10070
19050.00000	60.12598	5240.43957	60.12598
19100.00000	62.04736	5232.16912	62.04736
19150.00000	60.94766	5215.95807	60.94766
19200.00000	59.81238	5217.58864	59.81238
19250.00000	61.50117	5222.66229	61.50117
19300.00000	57.82299	5212.00632	57.82299
19350.00000	61.39977	5219.13480	61.39977
19400.00000	60.91974	5217.25299	60.91974
19450.00000	59.84602	5193.85041	59.84602
19500.00000	60.38789	5207.77279	60.38789
19550.00000	60.23420	5205.76495	60.23420
19600.00000	59.22229	5206.56864	59.22229
19650.00000	59.17168	5181.64982	59.17168
19700.00000	59.57499	5189.98120	59.57499
19750.00000	59.90985	5214.24702	59.90985
19800.00000	59.91459	5186.51676	59.91459
19850.00000	61.82087	5174.41405	61.82087
19900.00000	59.64467	5181.63017	59.64467
19950.00000	62.06805	5172.68142	62.06805
20000.00000	59.25838	5170.08471	59.25838
20050.00000	58.64172	5162.65746	58.64172
20100.00000	60.00122	5158.22782	60.00122
20150.00000	60.86708	5161.43624	60.86708
20200.00000	59.80065	5161.13605	59.80065
20250.00000	59.56839	5166.16292	59.56839
20300.00000	59.53776	5157.51404	59.53776
20350.00000	60.83689	5155.85883	60.83689
20400.00000	59.89723	5159.61594	59.89723
20450.00000	60.57969	5153.78607	60.57969
20500.00000	59.28842	5147.96915	59.28842
20550.00000	58.39354	5138.57622	58.39354
20600.00000	58.12228	5153.16743	58.12228
20650.00000	58.85497	5145.80715	58.85497
20700.00000	58.41930	5135.28891	58.41930
20750.00000	58.91898	5134.49142	58.91898
20800.00000	59.61438	5145.54276	59.61438
20850.00000	56.56794	5131.09910	56.56794
20900.00000	59.50715	5139.27250	59.50715
20950.00000	58.77473	5129.14526	58.77473
21000.00000	59.23178	5128.64691	59.23178
21050.00000	57.95156	5125.00773	57.95156
21100.00000	58.16494	5129.53419	58.16494
21150.00000	59.96689	5133.40594	59.96689
21200.00000	58.79462	5132.20304	58.79462
21250.00000	59.14596	5137.59608	59.14596
21300.00000	58.22535	5133.21162	58.22535
21350.00000	61.45067	5124.90591	61.45067
21400.00000	59.79296	5141.44390	59.79296
21450.00000	60.28387	5468.20341	60.28387
21500.00000	60.26500	5469.18747	60.26500
21550.00000	59.45986	5474.85760	59.45986
21600.00000	60.61062	5469.90057	60.61062
21650.00000	59.60352	5460.81516	59.60352
21700.00000	62.78620	5470.72511	62.78620
21750.00000	61.94758	5461.51083	61.94758
21800.00000	61.31081	5457.60206	61.31081
21850.00000	59.22689	5452.75723	59.22689
21900.00000	60.48334	5463.33069	60.48334
21950.00000	60.76961	5458.89834	60.76961
22000.00000	61.78881	5454.76426	61.78881
22050.00000	61.77974	5444.98594	61.77974
22100.00000	62.15525	5439.30975	62.15525
22150.00000	59.63017	5433.39551	59.63017
22200.00000	62.05574	5428.16592	62.05574
22250.00000	62.08703	5431.87906	62.08703
22300.00000	59.58076	5426.14644	59.58076
22350.00000	59.31638	5417.29488	59.31638
22400.00000	60.00524	5419.91036	60.00524
22450.00000	53.22970	5446.07477	53.22970
22500.00000	61.60093	5433.71520	61.60093
22550.00000	58.23015	5765.62626	58.23015
22600.00000	57.23293	5764.01612	57.23293
22650.00000	56.03898	5802.61212	56.03898
22700.00000	64.04274	6131.84132	64.04274
22750.00000	60.62048	6132.74274	60.62048
22800.00000	61.34151	6115.95676	61.34151
22850.00000	57.84176	6143.56527	57.84176
22900.00000	66.79080	6476.44485	66.79080
22950.00000	54.79868	6536.98682	54.79868
23000.00000	60.74623	6802.96082	60.74623
23050.00000	62.08664	6871.67662	62.08664
23100.00000	63.67562	7155.71615	63.67562
23150.00000	60.64649	7185.71090	60.64649
23200.00000	64.76015	7181.25319	64.76015
23250.00000	54.45115	7483.10665	54.45115
23300.00000	61.29317	7504.93701	61.29317
23350.00000	60.29293	7590.49185	60.29293
23400.00000	62.17090	7872.10841	62.17090
23450.00000	62.04961	7907.77534	62.04961
23500.00000	42.74435	7901.47746	42.74435
23550.00000	62.86761	8251.29569	62.86761
23600.00000	59.03051	8264.56487	59.03051
23650.00000	64.38021	8261.37726	64.38021
23700.00000	66.54217	8254.65350	66.54217
23750.00000	59.16967	8261.31128	59.16967
23800.00000	59.03765	8276.62102	59.03765
