---ACOUSTIC CALIBRATION---
Filename: C:\Data\AZH DATA\AZH62\RightPrimary.calib
Date: 8/27/2019 3:45:53 PM
Format: 4
Probe Tube Correction File: C:\Data\Probe Tube Calibrations\50_ProbeTube.calib
Experiment VIs: 850
EPL_CFTS.exe V12.0.1 (2012)
DAQmx V9.6

Attenuation (dB): 40.000000
Min Freq (Hz): 50.000000
Max Freq (Hz): 49950.000000
Freq Step (Hz): 50.000000
Sample Rate (Hz): 100000.000000
[Smoothing]
Method=None
MA.Iterations=0
MA.Length=0
Loess.Length=0
Loess.Type=Linear
Loess.Robust=FALSE


Freq(Hz)	Mag(dB)	Phase(deg)	Unsmoothed(dB)

50.00000	105.28757	617.98066	105.28757
100.00000	83.13448	577.94804	83.13448
150.00000	82.26958	499.98448	82.26958
200.00000	77.52698	436.59541	77.52698
250.00000	90.12179	439.78679	90.12179
300.00000	89.67270	338.13043	89.67270
350.00000	85.82272	344.09302	85.82272
400.00000	86.10055	374.07972	86.10055
450.00000	85.46698	347.57957	85.46698
500.00000	89.95454	352.46702	89.95454
550.00000	91.71167	363.58353	91.71167
600.00000	94.37137	364.86081	94.37137
650.00000	96.74946	350.00423	96.74946
700.00000	99.24357	332.68373	99.24357
750.00000	100.79811	313.18591	100.79811
800.00000	101.30324	294.49536	101.30324
850.00000	101.27799	275.94685	101.27799
900.00000	99.81850	258.43206	99.81850
950.00000	98.13735	254.63890	98.13735
1000.00000	96.68233	255.09255	96.68233
1050.00000	94.76518	269.11777	94.76518
1100.00000	96.17708	291.23500	96.17708
1150.00000	99.02663	297.35153	99.02663
1200.00000	101.80190	296.75638	101.80190
1250.00000	103.68472	288.95344	103.68472
1300.00000	105.24375	283.22950	105.24375
1350.00000	106.62072	273.38298	106.62072
1400.00000	107.40000	265.02205	107.40000
1450.00000	108.43028	259.33527	108.43028
1500.00000	109.53540	252.70478	109.53540
1550.00000	110.35428	244.45916	110.35428
1600.00000	111.91488	235.02601	111.91488
1650.00000	112.88242	218.28743	112.88242
1700.00000	111.73828	208.50431	111.73828
1750.00000	111.49968	202.29802	111.49968
1800.00000	111.16852	198.37186	111.16852
1850.00000	111.31692	196.92942	111.31692
1900.00000	112.41001	193.35684	112.41001
1950.00000	113.16915	180.36943	113.16915
2000.00000	112.29381	168.49122	112.29381
2050.00000	110.95618	172.27085	110.95618
2100.00000	112.70736	172.65600	112.70736
2150.00000	113.39471	161.46936	113.39471
2200.00000	113.34254	151.65169	113.34254
2250.00000	112.81622	144.33502	112.81622
2300.00000	112.86943	138.98260	112.86943
2350.00000	112.68941	132.46504	112.68941
2400.00000	112.44024	126.73883	112.44024
2450.00000	112.15783	120.49786	112.15783
2500.00000	111.75729	115.31612	111.75729
2550.00000	111.33383	109.88937	111.33383
2600.00000	110.83649	105.72327	110.83649
2650.00000	110.35053	101.83183	110.35053
2700.00000	109.86765	98.34436	109.86765
2750.00000	109.31113	94.49722	109.31113
2800.00000	108.69090	91.62740	108.69090
2850.00000	108.15007	89.62924	108.15007
2900.00000	107.47693	87.32029	107.47693
2950.00000	106.87616	86.60454	106.87616
3000.00000	106.26971	85.47400	106.26971
3050.00000	105.52908	84.59847	105.52908
3100.00000	104.73965	84.99548	104.73965
3150.00000	103.52703	85.59648	103.52703
3200.00000	102.28427	89.52710	102.28427
3250.00000	101.30424	99.63623	101.30424
3300.00000	100.70081	110.93355	100.70081
3350.00000	100.72116	128.81430	100.72116
3400.00000	102.53087	145.69571	102.53087
3450.00000	105.09389	154.85819	105.09389
3500.00000	107.72545	156.70072	107.72545
3550.00000	109.77470	153.60124	109.77470
3600.00000	111.63326	149.70284	111.63326
3650.00000	113.08470	144.48065	113.08470
3700.00000	114.39109	139.59500	114.39109
3750.00000	115.68093	134.40411	115.68093
3800.00000	116.89171	128.11389	116.89171
3850.00000	117.93324	121.42563	117.93324
3900.00000	118.92187	114.85254	118.92187
3950.00000	119.88160	107.76452	119.88160
4000.00000	120.73743	100.43429	120.73743
4050.00000	121.54946	93.15782	121.54946
4100.00000	122.39743	85.70162	122.39743
4150.00000	123.43024	77.38722	123.43024
4200.00000	124.18310	67.42027	124.18310
4250.00000	124.88982	56.22926	124.88982
4300.00000	125.35804	44.02669	125.35804
4350.00000	125.48924	31.53788	125.48924
4400.00000	125.35719	19.81112	125.35719
4450.00000	125.05394	 9.03889	125.05394
4500.00000	124.65429	-0.70234	124.65429
4550.00000	124.21873	-9.74357	124.21873
4600.00000	123.73215	-18.09068	123.73215
4650.00000	123.29962	-26.03274	123.29962
4700.00000	122.82714	-34.35363	122.82714
4750.00000	122.23055	-42.96424	122.23055
4800.00000	121.44623	-51.74326	121.44623
4850.00000	120.37069	-59.63112	120.37069
4900.00000	119.05252	-65.67820	119.05252
4950.00000	117.65672	-69.11284	117.65672
5000.00000	116.38770	-69.68544	116.38770
5050.00000	115.26685	-69.73098	115.26685
5100.00000	114.03893	-66.37719	114.03893
5150.00000	113.90346	-60.43666	113.90346
5200.00000	113.16214	-56.99987	113.16214
5250.00000	114.17754	-43.32092	114.17754
5300.00000	116.79343	-49.00473	116.79343
5350.00000	117.22406	-62.55776	117.22406
5400.00000	116.71153	-70.85988	116.71153
5450.00000	116.15547	-75.57143	116.15547
5500.00000	115.72438	-78.90755	115.72438
5550.00000	115.40201	-81.51279	115.40201
5600.00000	115.13756	-84.02294	115.13756
5650.00000	114.94340	-86.34125	114.94340
5700.00000	114.74490	-88.79171	114.74490
5750.00000	114.59454	-91.10016	114.59454
5800.00000	114.43497	-93.50663	114.43497
5850.00000	114.30802	-95.94095	114.30802
5900.00000	114.19464	-98.21616	114.19464
5950.00000	114.08044	-100.57826	114.08044
6000.00000	113.98494	-102.79301	113.98494
6050.00000	113.88364	-105.03416	113.88364
6100.00000	113.81618	-107.26867	113.81618
6150.00000	113.76492	-109.55779	113.76492
6200.00000	113.71760	-111.93906	113.71760
6250.00000	113.69390	-114.61021	113.69390
6300.00000	113.66313	-117.30222	113.66313
6350.00000	113.59397	-120.06493	113.59397
6400.00000	113.52804	-122.67602	113.52804
6450.00000	113.47013	-125.42147	113.47013
6500.00000	113.38783	-128.13278	113.38783
6550.00000	113.31708	-130.74079	113.31708
6600.00000	113.24523	-133.29905	113.24523
6650.00000	113.19195	-135.79329	113.19195
6700.00000	113.14885	-138.47046	113.14885
6750.00000	113.11028	-140.98674	113.11028
6800.00000	113.07218	-143.53156	113.07218
6850.00000	113.03590	-146.05982	113.03590
6900.00000	113.01590	-148.55004	113.01590
6950.00000	113.00278	-150.98311	113.00278
7000.00000	113.00663	-153.66844	113.00663
7050.00000	113.00800	-156.49571	113.00800
7100.00000	113.02105	-159.31258	113.02105
7150.00000	113.02955	-162.09314	113.02955
7200.00000	113.03267	-165.05357	113.03267
7250.00000	113.00936	-168.17124	113.00936
7300.00000	113.03103	-171.23973	113.03103
7350.00000	113.00658	-174.31599	113.00658
7400.00000	113.01044	-177.69858	113.01044
7450.00000	112.99046	-181.02097	112.99046
7500.00000	112.96241	-184.52514	112.96241
7550.00000	112.95126	-187.70513	112.95126
7600.00000	112.90003	-191.16115	112.90003
7650.00000	112.85208	-194.52769	112.85208
7700.00000	112.83684	-197.95079	112.83684
7750.00000	112.76103	-201.41238	112.76103
7800.00000	112.69266	-204.95704	112.69266
7850.00000	112.62818	-208.39869	112.62818
7900.00000	112.57203	-211.82452	112.57203
7950.00000	112.51077	-215.47372	112.51077
8000.00000	112.43422	-219.16546	112.43422
8050.00000	112.34421	-223.16265	112.34421
8100.00000	112.26143	-226.52915	112.26143
8150.00000	112.10175	-230.26557	112.10175
8200.00000	111.98472	-233.69606	111.98472
8250.00000	111.82641	-237.77901	111.82641
8300.00000	111.65235	-241.66645	111.65235
8350.00000	111.42427	-245.33548	111.42427
8400.00000	111.19139	-249.52417	111.19139
8450.00000	110.90870	-253.51230	110.90870
8500.00000	110.63660	-257.71822	110.63660
8550.00000	110.37694	-261.46630	110.37694
8600.00000	110.06759	-265.70576	110.06759
8650.00000	109.72254	-269.40491	109.72254
8700.00000	109.41426	-273.47595	109.41426
8750.00000	109.02016	-275.86453	109.02016
8800.00000	108.67848	-279.29424	108.67848
8850.00000	108.25404	-282.20111	108.25404
8900.00000	107.85575	-284.48890	107.85575
8950.00000	107.44037	-287.25794	107.44037
9000.00000	106.93287	-289.73998	106.93287
9050.00000	106.50695	-292.46724	106.50695
9100.00000	106.07936	-294.83496	106.07936
9150.00000	105.68143	-297.38756	105.68143
9200.00000	105.35652	-299.89032	105.35652
9250.00000	105.00748	-302.21444	105.00748
9300.00000	104.76321	-304.27547	104.76321
9350.00000	104.57372	-306.16625	104.57372
9400.00000	104.26754	-307.29693	104.26754
9450.00000	104.04246	-308.09829	104.04246
9500.00000	103.82104	-308.00350	103.82104
9550.00000	103.67085	-308.00319	103.67085
9600.00000	103.55096	-309.34131	103.55096
9650.00000	103.27582	-311.06417	103.27582
9700.00000	102.97338	-311.97204	102.97338
9750.00000	102.75520	-314.46496	102.75520
9800.00000	102.51152	-315.98344	102.51152
9850.00000	102.35260	-317.53703	102.35260
9900.00000	102.11907	-319.53921	102.11907
9950.00000	102.02736	-320.81718	102.02736
10000.00000	101.94577	-322.61084	101.94577
10050.00000	101.81340	-323.67753	101.81340
10100.00000	101.64647	-324.61680	101.64647
10150.00000	101.39258	-326.30227	101.39258
10200.00000	101.15964	-327.71249	101.15964
10250.00000	100.89888	-329.53195	100.89888
10300.00000	100.76736	-331.58687	100.76736
10350.00000	100.55817	-333.69640	100.55817
10400.00000	100.34682	-336.19373	100.34682
10450.00000	100.32569	-338.76796	100.32569
10500.00000	100.32688	-340.77817	100.32688
10550.00000	100.28507	-342.82401	100.28507
10600.00000	100.20277	-344.40503	100.20277
10650.00000	100.10270	-345.50567	100.10270
10700.00000	99.97969	-347.76287	99.97969
10750.00000	99.86371	-349.59572	99.86371
10800.00000	99.63847	-351.31662	99.63847
10850.00000	99.44206	-354.30839	99.44206
10900.00000	99.27925	-356.46507	99.27925
10950.00000	99.14092	-358.48390	99.14092
11000.00000	99.00599	-360.88650	99.00599
11050.00000	98.73896	-362.94194	98.73896
11100.00000	98.55371	-365.26785	98.55371
11150.00000	98.27416	-366.92953	98.27416
11200.00000	98.09425	-368.53536	98.09425
11250.00000	97.77730	-370.62738	97.77730
11300.00000	97.45635	-372.72491	97.45635
11350.00000	97.17426	-374.17208	97.17426
11400.00000	96.83084	-376.02447	96.83084
11450.00000	96.60815	-378.41420	96.60815
11500.00000	96.50063	-379.28720	96.50063
11550.00000	96.20278	-380.63850	96.20278
11600.00000	96.09264	-382.65260	96.09264
11650.00000	95.86559	-382.91603	95.86559
11700.00000	95.72850	-384.07617	95.72850
11750.00000	95.59640	-385.37509	95.59640
11800.00000	95.41151	-387.04658	95.41151
11850.00000	95.30679	-387.45150	95.30679
11900.00000	94.96633	-389.52724	94.96633
11950.00000	94.84631	-390.47715	94.84631
12000.00000	94.63207	-391.48520	94.63207
12050.00000	94.40161	-392.67373	94.40161
12100.00000	94.33260	-395.01589	94.33260
12150.00000	94.16437	-396.67808	94.16437
12200.00000	94.13553	-398.29098	94.13553
12250.00000	94.00331	-399.28277	94.00331
12300.00000	94.95582	-400.90963	94.95582
12350.00000	93.66635	-402.26915	93.66635
12400.00000	93.47972	-402.95864	93.47972
12450.00000	93.31301	-404.58218	93.31301
12500.00000	93.08935	-406.81504	93.08935
12550.00000	92.91803	-408.57909	92.91803
12600.00000	92.71854	-410.89135	92.71854
12650.00000	92.69612	-412.53568	92.69612
12700.00000	92.41967	-413.97958	92.41967
12750.00000	92.22258	-415.63855	92.22258
12800.00000	91.97590	-416.71685	91.97590
12850.00000	91.43592	-418.05736	91.43592
12900.00000	91.17448	-420.11374	91.17448
12950.00000	90.92188	-421.57869	90.92188
13000.00000	90.67964	-424.05146	90.67964
13050.00000	90.54135	-424.50886	90.54135
13100.00000	90.17099	-426.00365	90.17099
13150.00000	90.00223	-427.61449	90.00223
13200.00000	89.70888	-426.69130	89.70888
13250.00000	89.42319	-427.69571	89.42319
13300.00000	88.94031	-426.57547	88.94031
13350.00000	88.66484	-428.24497	88.66484
13400.00000	88.48923	-429.85122	88.48923
13450.00000	88.04163	-428.96325	88.04163
13500.00000	88.03519	-428.11855	88.03519
13550.00000	87.57903	-428.12654	87.57903
13600.00000	87.25174	-427.34200	87.25174
13650.00000	86.96903	-427.25846	86.96903
13700.00000	86.47574	-428.11489	86.47574
13750.00000	86.43697	-428.25422	86.43697
13800.00000	86.23070	-429.25289	86.23070
13850.00000	86.06336	-429.13657	86.06336
13900.00000	85.91197	-427.62131	85.91197
13950.00000	85.63660	-426.06817	85.63660
14000.00000	85.55738	-425.02150	85.55738
14050.00000	85.47864	-425.94227	85.47864
14100.00000	85.14885	-425.53448	85.14885
14150.00000	85.22874	-425.53890	85.22874
14200.00000	85.34380	-424.32556	85.34380
14250.00000	85.58932	-420.78791	85.58932
14300.00000	85.50741	-419.45697	85.50741
14350.00000	85.28672	-417.32223	85.28672
14400.00000	84.70106	-417.10226	84.70106
14450.00000	84.83757	-415.45289	84.83757
14500.00000	84.68168	-416.91141	84.68168
14550.00000	84.87846	-415.70264	84.87846
14600.00000	84.87948	-417.24236	84.87948
14650.00000	85.16575	-413.51578	85.16575
14700.00000	85.27613	-416.54050	85.27613
14750.00000	85.36186	-413.75193	85.36186
14800.00000	85.04944	-412.25827	85.04944
14850.00000	85.26517	-412.18472	85.26517
14900.00000	85.37990	-411.09212	85.37990
14950.00000	85.70248	-411.58365	85.70248
15000.00000	86.07305	-410.97733	86.07305
15050.00000	86.07392	-407.82948	86.07392
15100.00000	86.11386	-405.34109	86.11386
15150.00000	86.10860	-407.38568	86.10860
15200.00000	86.02573	-406.30774	86.02573
15250.00000	86.19721	-407.72450	86.19721
15300.00000	86.94316	-408.36858	86.94316
15350.00000	87.12324	-405.81203	87.12324
15400.00000	87.16478	-403.95283	87.16478
15450.00000	87.14815	-403.04521	87.14815
15500.00000	87.35381	-402.37223	87.35381
15550.00000	87.61038	-403.20580	87.61038
15600.00000	87.82507	-403.82642	87.82507
15650.00000	88.40630	-400.52822	88.40630
15700.00000	88.59411	-401.23309	88.59411
15750.00000	89.05013	-399.59713	89.05013
15800.00000	89.50185	-398.36036	89.50185
15850.00000	89.67594	-398.83090	89.67594
15900.00000	90.00967	-399.62631	90.00967
15950.00000	90.60343	-399.52372	90.60343
16000.00000	91.03663	-399.53402	91.03663
16050.00000	91.71070	-399.39731	91.71070
16100.00000	91.90113	-398.98364	91.90113
16150.00000	92.30475	-399.39476	92.30475
16200.00000	92.79309	-401.85816	92.79309
16250.00000	93.25678	-403.03094	93.25678
16300.00000	94.03457	-404.14625	94.03457
16350.00000	94.49403	-405.17819	94.49403
16400.00000	95.05739	-405.74774	95.05739
16450.00000	95.36927	-406.77556	95.36927
16500.00000	95.81269	-409.03194	95.81269
16550.00000	96.35588	-412.58275	96.35588
16600.00000	96.85002	-414.66185	96.85002
16650.00000	97.35532	-416.67519	97.35532
16700.00000	97.83383	-418.47155	97.83383
16750.00000	98.18052	-421.39427	98.18052
16800.00000	98.54533	-424.67299	98.54533
16850.00000	99.00983	-427.70922	99.00983
16900.00000	99.45521	-431.31007	99.45521
16950.00000	99.84377	-434.26864	99.84377
17000.00000	100.08867	-437.37330	100.08867
17050.00000	100.45164	-439.61578	100.45164
17100.00000	100.62511	-442.14801	100.62511
17150.00000	100.99372	-446.55567	100.99372
17200.00000	101.26286	-450.00295	101.26286
17250.00000	101.48415	-453.77199	101.48415
17300.00000	101.80231	-456.86285	101.80231
17350.00000	101.82570	-459.38699	101.82570
17400.00000	102.07278	-463.12527	102.07278
17450.00000	102.20186	-466.91303	102.20186
17500.00000	102.43031	-469.91978	102.43031
17550.00000	102.61704	-473.02516	102.61704
17600.00000	102.83554	-475.53568	102.83554
17650.00000	102.92640	-479.55356	102.92640
17700.00000	103.02956	-482.64955	103.02956
17750.00000	103.25306	-485.33177	103.25306
17800.00000	103.32862	-488.90915	103.32862
17850.00000	103.50686	-491.24542	103.50686
17900.00000	103.63504	-494.28839	103.63504
17950.00000	103.78097	-497.74702	103.78097
18000.00000	103.91567	-501.65575	103.91567
18050.00000	104.16752	-504.07596	104.16752
18100.00000	104.23468	-507.79632	104.23468
18150.00000	104.36600	-510.36963	104.36600
18200.00000	104.39427	-514.07972	104.39427
18250.00000	104.56766	-516.64293	104.56766
18300.00000	104.67608	-519.91952	104.67608
18350.00000	104.80007	-523.12248	104.80007
18400.00000	104.84379	-526.48984	104.84379
18450.00000	104.87504	-530.92411	104.87504
18500.00000	104.95126	-533.87683	104.95126
18550.00000	104.97046	-537.03538	104.97046
18600.00000	105.11179	-540.66142	105.11179
18650.00000	105.01835	-543.50463	105.01835
18700.00000	105.04307	-547.07200	105.04307
18750.00000	105.07053	-550.03038	105.07053
18800.00000	105.18918	-552.55977	105.18918
18850.00000	105.08746	-555.65232	105.08746
18900.00000	105.09014	-558.44094	105.09014
18950.00000	105.15978	-561.76051	105.15978
19000.00000	105.00839	-564.17506	105.00839
19050.00000	105.16253	-566.93588	105.16253
19100.00000	105.14306	-569.60463	105.14306
19150.00000	105.32187	-572.28595	105.32187
19200.00000	105.36281	-574.54282	105.36281
19250.00000	105.38526	-578.44196	105.38526
19300.00000	105.38677	-580.66663	105.38677
19350.00000	105.44889	-583.72393	105.44889
19400.00000	105.49121	-586.45778	105.49121
19450.00000	105.66057	-589.03223	105.66057
19500.00000	105.61537	-592.84707	105.61537
19550.00000	105.69444	-595.77550	105.69444
19600.00000	105.81032	-599.42468	105.81032
19650.00000	105.80113	-602.14828	105.80113
19700.00000	105.74954	-605.47822	105.74954
19750.00000	105.75060	-608.16692	105.75060
19800.00000	105.85320	-612.23573	105.85320
19850.00000	105.87367	-615.26709	105.87367
19900.00000	105.83038	-619.38908	105.83038
19950.00000	105.78829	-622.53356	105.78829
20000.00000	105.75766	-626.00612	105.75766
20050.00000	105.73301	-629.32355	105.73301
20100.00000	105.58492	-632.75777	105.58492
20150.00000	105.58306	-635.24005	105.58306
20200.00000	105.45494	-639.34533	105.45494
20250.00000	105.30596	-642.47757	105.30596
20300.00000	105.11437	-645.63141	105.11437
20350.00000	105.06368	-648.94013	105.06368
20400.00000	104.85140	-651.06439	104.85140
20450.00000	104.62594	-654.07584	104.62594
20500.00000	104.51777	-657.14814	104.51777
20550.00000	104.11783	-658.96462	104.11783
20600.00000	104.02342	-661.25102	104.02342
20650.00000	103.83471	-663.55251	103.83471
20700.00000	103.59578	-665.44934	103.59578
20750.00000	103.47519	-667.23586	103.47519
20800.00000	103.26719	-668.60473	103.26719
20850.00000	103.17010	-670.24046	103.17010
20900.00000	102.98015	-671.56193	102.98015
20950.00000	102.85127	-672.23814	102.85127
21000.00000	102.76660	-673.14884	102.76660
21050.00000	102.84746	-673.89858	102.84746
21100.00000	102.81379	-674.46312	102.81379
21150.00000	102.92519	-675.72757	102.92519
21200.00000	103.03155	-676.43443	103.03155
21250.00000	103.12422	-678.97458	103.12422
21300.00000	103.30868	-679.96577	103.30868
21350.00000	103.40507	-681.47777	103.40507
21400.00000	103.52480	-683.84605	103.52480
21450.00000	103.65227	-686.04199	103.65227
21500.00000	103.78437	-688.82017	103.78437
21550.00000	103.77980	-690.98599	103.77980
21600.00000	103.91830	-693.62482	103.91830
21650.00000	103.95345	-696.58175	103.95345
21700.00000	103.95802	-698.90284	103.95802
21750.00000	103.97322	-701.61929	103.97322
21800.00000	103.98559	-704.37557	103.98559
21850.00000	103.89030	-706.75707	103.89030
21900.00000	103.88853	-709.19320	103.88853
21950.00000	103.82699	-711.58872	103.82699
22000.00000	103.83926	-713.77532	103.83926
22050.00000	103.77478	-715.54930	103.77478
22100.00000	103.70199	-718.05337	103.70199
22150.00000	103.63932	-719.86660	103.63932
22200.00000	103.67875	-722.11209	103.67875
22250.00000	103.60255	-723.69379	103.60255
22300.00000	103.48118	-725.84574	103.48118
22350.00000	103.58739	-727.89920	103.58739
22400.00000	103.55632	-730.11006	103.55632
22450.00000	103.44361	-731.79550	103.44361
22500.00000	103.41708	-733.02154	103.41708
22550.00000	103.41527	-734.99085	103.41527
22600.00000	103.38978	-737.60445	103.38978
22650.00000	103.35553	-739.34387	103.35553
22700.00000	103.41032	-740.83556	103.41032
22750.00000	103.34138	-741.47988	103.34138
22800.00000	103.33840	-745.16285	103.33840
