---ACOUSTIC CALIBRATION---
Filename: C:\Data\AZH DATA\AZH62\RightPrimary.calib
Date: 8/27/2019 3:45:21 PM
Format: 4
Probe Tube Correction File: C:\Data\Probe Tube Calibrations\50_ProbeTube.calib
Experiment VIs: 850
EPL_CFTS.exe V12.0.1 (2012)
DAQmx V9.6

Attenuation (dB): 40.000000
Min Freq (Hz): 50.000000
Max Freq (Hz): 49950.000000
Freq Step (Hz): 50.000000
Sample Rate (Hz): 100000.000000
[Smoothing]
Method=None
MA.Iterations=0
MA.Length=0
Loess.Length=0
Loess.Type=Linear
Loess.Robust=FALSE


Freq(Hz)	Mag(dB)	Phase(deg)	Unsmoothed(dB)

50.00000	110.07321	570.42031	110.07321
100.00000	78.48919	424.89438	78.48919
150.00000	76.23663	488.67577	76.23663
200.00000	70.60366	412.96579	70.60366
250.00000	85.32758	422.30422	85.32758
300.00000	85.51746	294.93211	85.51746
350.00000	82.49770	360.50182	82.49770
400.00000	85.81813	366.26988	85.81813
450.00000	86.73728	368.54373	86.73728
500.00000	90.67176	349.20155	90.67176
550.00000	91.05689	368.89904	91.05689
600.00000	93.74293	362.03133	93.74293
650.00000	95.93177	347.34536	95.93177
700.00000	98.72966	329.37342	98.72966
750.00000	100.43935	315.76122	100.43935
800.00000	100.98656	292.91213	100.98656
850.00000	100.87218	276.32909	100.87218
900.00000	99.54466	258.93312	99.54466
950.00000	97.70310	255.70982	97.70310
1000.00000	96.07227	257.22056	96.07227
1050.00000	94.39294	270.85815	94.39294
1100.00000	95.58585	293.55107	95.58585
1150.00000	98.74205	298.05243	98.74205
1200.00000	101.33726	296.35732	101.33726
1250.00000	103.28462	289.05556	103.28462
1300.00000	104.86889	282.92812	104.86889
1350.00000	106.20297	273.77725	106.20297
1400.00000	106.97167	265.79784	106.97167
1450.00000	107.88733	259.56591	107.88733
1500.00000	109.01084	253.62712	109.01084
1550.00000	109.87442	245.05153	109.87442
1600.00000	111.45395	236.23503	111.45395
1650.00000	112.37940	218.77276	112.37940
1700.00000	111.17889	208.82021	111.17889
1750.00000	110.91930	202.86651	110.91930
1800.00000	110.62248	198.28718	110.62248
1850.00000	110.74014	197.41299	110.74014
1900.00000	111.87520	193.69753	111.87520
1950.00000	112.60624	181.05677	112.60624
2000.00000	111.69386	169.08377	111.69386
2050.00000	110.40243	172.93862	110.40243
2100.00000	112.15835	173.32633	112.15835
2150.00000	112.88162	162.01066	112.88162
2200.00000	112.79185	151.83622	112.79185
2250.00000	112.27367	145.23316	112.27367
2300.00000	112.35687	139.38411	112.35687
2350.00000	112.11741	133.25792	112.11741
2400.00000	111.90660	127.42737	111.90660
2450.00000	111.60010	121.25092	111.60010
2500.00000	111.30273	116.21562	111.30273
2550.00000	110.74921	110.65959	110.74921
2600.00000	110.26222	106.41733	110.26222
2650.00000	109.79378	102.32184	109.79378
2700.00000	109.28880	98.93742	109.28880
2750.00000	108.76049	94.94786	108.76049
2800.00000	108.12150	92.12227	108.12150
2850.00000	107.53324	90.28103	107.53324
2900.00000	106.91014	87.95763	106.91014
2950.00000	106.24711	87.48451	106.24711
3000.00000	105.59216	85.84963	105.59216
3050.00000	104.85634	85.53989	104.85634
3100.00000	104.01016	85.50064	104.01016
3150.00000	102.81097	86.90459	102.81097
3200.00000	101.54958	93.51169	101.54958
3250.00000	100.50960	103.23144	100.50960
3300.00000	100.13221	115.41042	100.13221
3350.00000	100.36561	133.37697	100.36561
3400.00000	102.31309	149.97801	102.31309
3450.00000	104.97255	157.54591	104.97255
3500.00000	107.55572	158.27334	107.55572
3550.00000	109.64067	155.00925	109.64067
3600.00000	111.45518	150.94284	111.45518
3650.00000	112.88669	145.48021	112.88669
3700.00000	114.16130	140.43825	114.16130
3750.00000	115.44623	135.05479	115.44623
3800.00000	116.61968	128.48983	116.61968
3850.00000	117.64307	121.68844	117.64307
3900.00000	118.60987	115.10152	118.60987
3950.00000	119.54517	108.00301	119.54517
4000.00000	120.39973	100.65408	120.39973
4050.00000	121.19716	93.32381	121.19716
4100.00000	122.03572	85.83314	122.03572
4150.00000	123.05319	77.38486	123.05319
4200.00000	123.79266	67.33867	123.79266
4250.00000	124.46436	56.11424	124.46436
4300.00000	124.89941	43.95405	124.89941
4350.00000	124.99015	31.55130	124.99015
4400.00000	124.83359	20.01032	124.83359
4450.00000	124.52951	 9.44217	124.52951
4500.00000	124.12696	-0.12142	124.12696
4550.00000	123.70256	-8.97384	123.70256
4600.00000	123.23139	-17.25873	123.23139
4650.00000	122.80959	-25.07426	122.80959
4700.00000	122.35126	-33.37881	122.35126
4750.00000	121.76513	-41.94940	121.76513
4800.00000	120.98800	-50.70008	120.98800
4850.00000	119.91607	-58.60669	119.91607
4900.00000	118.60947	-64.72057	118.60947
4950.00000	117.21982	-68.03084	117.21982
5000.00000	115.91508	-69.29662	115.91508
5050.00000	114.81513	-68.78513	114.81513
5100.00000	113.61566	-65.14127	113.61566
5150.00000	113.51418	-59.26860	113.51418
5200.00000	112.80892	-55.58139	112.80892
5250.00000	113.98128	-42.67449	113.98128
5300.00000	116.45892	-49.49450	116.45892
5350.00000	116.74236	-62.70554	116.74236
5400.00000	116.20373	-70.61530	116.20373
5450.00000	115.66596	-74.95199	115.66596
5500.00000	115.23756	-78.18728	115.23756
5550.00000	114.91843	-80.77174	114.91843
5600.00000	114.66042	-83.22688	114.66042
5650.00000	114.45564	-85.44425	114.45564
5700.00000	114.27664	-87.91428	114.27664
5750.00000	114.12998	-90.17491	114.12998
5800.00000	113.96370	-92.61582	113.96370
5850.00000	113.84380	-94.96823	113.84380
5900.00000	113.72250	-97.27756	113.72250
5950.00000	113.59852	-99.71381	113.59852
6000.00000	113.51885	-101.73983	113.51885
6050.00000	113.41761	-104.04943	113.41761
6100.00000	113.36659	-106.21866	113.36659
6150.00000	113.32778	-108.59631	113.32778
6200.00000	113.27701	-111.00175	113.27701
6250.00000	113.25199	-113.72052	113.25199
6300.00000	113.20701	-116.38336	113.20701
6350.00000	113.13964	-119.24138	113.13964
6400.00000	113.06315	-121.87425	113.06315
6450.00000	112.99720	-124.52689	112.99720
6500.00000	112.91665	-127.17833	112.91665
6550.00000	112.84376	-129.84112	112.84376
6600.00000	112.76696	-132.30586	112.76696
6650.00000	112.70298	-134.82091	112.70298
6700.00000	112.64871	-137.48483	112.64871
6750.00000	112.61207	-140.04506	112.61207
6800.00000	112.56875	-142.47005	112.56875
6850.00000	112.53460	-144.96035	112.53460
6900.00000	112.51667	-147.40450	112.51667
6950.00000	112.49493	-149.92638	112.49493
7000.00000	112.49816	-152.51589	112.49816
7050.00000	112.48395	-155.20210	112.48395
7100.00000	112.49268	-158.12691	112.49268
7150.00000	112.51259	-160.86924	112.51259
7200.00000	112.50491	-163.76395	112.50491
7250.00000	112.48321	-166.89753	112.48321
7300.00000	112.49693	-169.94081	112.49693
7350.00000	112.47691	-172.87189	112.47691
7400.00000	112.46579	-176.10811	112.46579
7450.00000	112.45747	-179.42774	112.45747
7500.00000	112.46976	-182.78234	112.46976
7550.00000	112.39884	-185.97373	112.39884
7600.00000	112.34061	-189.29153	112.34061
7650.00000	112.29534	-192.63223	112.29534
7700.00000	112.28045	-195.92075	112.28045
7750.00000	112.20042	-199.20140	112.20042
7800.00000	112.13170	-202.65265	112.13170
7850.00000	112.07033	-205.92149	112.07033
7900.00000	112.02880	-209.14679	112.02880
7950.00000	111.96518	-212.71860	111.96518
8000.00000	111.90312	-216.25442	111.90312
8050.00000	111.84057	-220.07242	111.84057
8100.00000	111.77730	-223.33795	111.77730
8150.00000	111.63198	-226.99168	111.63198
8200.00000	111.54653	-230.35207	111.54653
8250.00000	111.41279	-234.37934	111.41279
8300.00000	111.28371	-238.18438	111.28371
8350.00000	111.09380	-241.87583	111.09380
8400.00000	110.89466	-246.00882	110.89466
8450.00000	110.63119	-249.91213	110.63119
8500.00000	110.39953	-254.13537	110.39953
8550.00000	110.16237	-257.95138	110.16237
8600.00000	109.88924	-262.21718	109.88924
8650.00000	109.56112	-266.07710	109.56112
8700.00000	109.28221	-270.25603	109.28221
8750.00000	108.88647	-272.96487	108.88647
8800.00000	108.56184	-276.49426	108.56184
8850.00000	108.14464	-279.63354	108.14464
8900.00000	107.76028	-282.19081	107.76028
8950.00000	107.36102	-285.12584	107.36102
9000.00000	106.84785	-287.79771	106.84785
9050.00000	106.43102	-290.70017	106.43102
9100.00000	106.00598	-293.04587	106.00598
9150.00000	105.63299	-295.61927	105.63299
9200.00000	105.29655	-298.22326	105.29655
9250.00000	104.92954	-300.57222	104.92954
9300.00000	104.66324	-302.58251	104.66324
9350.00000	104.46798	-304.49710	104.46798
9400.00000	104.16475	-305.64182	104.16475
9450.00000	103.90539	-306.67627	103.90539
9500.00000	103.66674	-306.71957	103.66674
9550.00000	103.53411	-306.79929	103.53411
9600.00000	103.40859	-308.33997	103.40859
9650.00000	103.14317	-309.96571	103.14317
9700.00000	102.86363	-311.10332	102.86363
9750.00000	102.66457	-313.50793	102.66457
9800.00000	102.41421	-314.94102	102.41421
9850.00000	102.25461	-316.43482	102.25461
9900.00000	101.99760	-318.40998	101.99760
9950.00000	101.89331	-319.59764	101.89331
10000.00000	101.79931	-321.57671	101.79931
10050.00000	101.64972	-322.71777	101.64972
10100.00000	101.47591	-323.70430	101.47591
10150.00000	101.19634	-325.57327	101.19634
10200.00000	100.99581	-326.98821	100.99581
10250.00000	100.74010	-328.92908	100.74010
10300.00000	100.61152	-330.92617	100.61152
10350.00000	100.39985	-332.90418	100.39985
10400.00000	100.20456	-335.38869	100.20456
10450.00000	100.17142	-337.79776	100.17142
10500.00000	100.15074	-339.89439	100.15074
10550.00000	100.11124	-341.91296	100.11124
10600.00000	100.02003	-343.58299	100.02003
10650.00000	99.90222	-344.66175	99.90222
10700.00000	99.79296	-347.08381	99.79296
10750.00000	99.68323	-348.91927	99.68323
10800.00000	99.45885	-350.61421	99.45885
10850.00000	99.27134	-353.62855	99.27134
10900.00000	99.12384	-355.68687	99.12384
10950.00000	98.97503	-357.72465	98.97503
11000.00000	98.83893	-360.02066	98.83893
11050.00000	98.56474	-362.14191	98.56474
11100.00000	98.37197	-364.60430	98.37197
11150.00000	98.08418	-366.17451	98.08418
11200.00000	97.94552	-367.87567	97.94552
11250.00000	97.62143	-370.08207	97.62143
11300.00000	97.28994	-372.17630	97.28994
11350.00000	97.02437	-373.54399	97.02437
11400.00000	96.69319	-375.60688	96.69319
11450.00000	96.45696	-377.77827	96.45696
11500.00000	96.33319	-378.92600	96.33319
11550.00000	96.02838	-380.12623	96.02838
11600.00000	95.92898	-382.25759	95.92898
11650.00000	95.70793	-382.59535	95.70793
11700.00000	95.55239	-383.67686	95.55239
11750.00000	95.43209	-385.08886	95.43209
11800.00000	95.21952	-386.87042	95.21952
11850.00000	95.11867	-387.32582	95.11867
11900.00000	94.79017	-389.13782	94.79017
11950.00000	94.65042	-390.31853	94.65042
12000.00000	94.41248	-391.37302	94.41248
12050.00000	94.19809	-392.60354	94.19809
12100.00000	94.08751	-394.61445	94.08751
12150.00000	93.93272	-396.21861	93.93272
12200.00000	93.89227	-397.82778	93.89227
12250.00000	93.70121	-398.90331	93.70121
12300.00000	94.72117	-400.62211	94.72117
12350.00000	93.40158	-402.14395	93.40158
12400.00000	93.21696	-402.93072	93.21696
12450.00000	93.03389	-404.39599	93.03389
12500.00000	92.86951	-406.08401	92.86951
12550.00000	92.68291	-408.19852	92.68291
12600.00000	92.47661	-410.28826	92.47661
12650.00000	92.43924	-412.05363	92.43924
12700.00000	92.20317	-413.43024	92.20317
12750.00000	91.89890	-414.58755	91.89890
12800.00000	91.68914	-416.23875	91.68914
12850.00000	91.22898	-417.85678	91.22898
12900.00000	90.88252	-419.20759	90.88252
12950.00000	90.76640	-421.07644	90.76640
13000.00000	90.46775	-423.40996	90.46775
13050.00000	90.24761	-424.01970	90.24761
13100.00000	89.96902	-425.56103	89.96902
13150.00000	89.71943	-427.21271	89.71943
13200.00000	89.47370	-426.07268	89.47370
13250.00000	89.09726	-427.06734	89.09726
13300.00000	88.70184	-426.42860	88.70184
13350.00000	88.32613	-428.23411	88.32613
13400.00000	88.25630	-428.65058	88.25630
13450.00000	87.83457	-428.24435	87.83457
13500.00000	87.72437	-427.28999	87.72437
13550.00000	87.26684	-427.09131	87.26684
13600.00000	87.05058	-426.28845	87.05058
13650.00000	86.79284	-426.47336	86.79284
13700.00000	86.23878	-427.18869	86.23878
13750.00000	86.15405	-427.42443	86.15405
13800.00000	85.97608	-429.16060	85.97608
13850.00000	85.84381	-428.69358	85.84381
13900.00000	85.67252	-426.72668	85.67252
13950.00000	85.40072	-425.41388	85.40072
14000.00000	85.38191	-423.94773	85.38191
14050.00000	85.27728	-424.56926	85.27728
14100.00000	85.00397	-424.43901	85.00397
14150.00000	84.98355	-423.76917	84.98355
14200.00000	85.07398	-422.38411	85.07398
14250.00000	85.55284	-419.63572	85.55284
14300.00000	85.36170	-418.78014	85.36170
14350.00000	85.22875	-416.36342	85.22875
14400.00000	84.87544	-416.67492	84.87544
14450.00000	84.69722	-414.98997	84.69722
14500.00000	84.53309	-415.20067	84.53309
14550.00000	84.69984	-415.34918	84.69984
14600.00000	84.92694	-415.12343	84.92694
14650.00000	84.99175	-413.65840	84.99175
14700.00000	84.98899	-415.75007	84.98899
14750.00000	85.09339	-414.13818	85.09339
14800.00000	85.00984	-411.56930	85.00984
14850.00000	85.40904	-410.99594	85.40904
14900.00000	85.57199	-411.81827	85.57199
14950.00000	85.93544	-411.37531	85.93544
15000.00000	85.91560	-409.67178	85.91560
15050.00000	85.89315	-407.71581	85.89315
15100.00000	86.01768	-407.48619	86.01768
15150.00000	86.09742	-407.68306	86.09742
15200.00000	86.12435	-407.73519	86.12435
15250.00000	86.06144	-407.18032	86.06144
15300.00000	86.76941	-407.82538	86.76941
15350.00000	86.94903	-407.17188	86.94903
15400.00000	86.91280	-404.04430	86.91280
15450.00000	86.97479	-404.59857	86.97479
15500.00000	87.32415	-404.81859	87.32415
15550.00000	87.58732	-404.58962	87.58732
15600.00000	87.78986	-405.11559	87.78986
15650.00000	88.32284	-401.56592	88.32284
15700.00000	88.44357	-402.13813	88.44357
15750.00000	88.93888	-401.27584	88.93888
15800.00000	89.19912	-400.12195	89.19912
15850.00000	89.26707	-399.95102	89.26707
15900.00000	89.76104	-402.11672	89.76104
15950.00000	90.30366	-401.33407	90.30366
16000.00000	90.72354	-401.47998	90.72354
16050.00000	91.29812	-400.97926	91.29812
16100.00000	91.53604	-401.12697	91.53604
16150.00000	91.87952	-401.52190	91.87952
16200.00000	92.29771	-403.24864	92.29771
16250.00000	92.81900	-404.92844	92.81900
16300.00000	93.55492	-406.32718	93.55492
16350.00000	93.99612	-406.87318	93.99612
16400.00000	94.40594	-407.26941	94.40594
16450.00000	94.76986	-408.40160	94.76986
16500.00000	95.19000	-410.55393	95.19000
16550.00000	95.73491	-413.63897	95.73491
16600.00000	96.24983	-415.81213	96.24983
16650.00000	96.72461	-417.62651	96.72461
16700.00000	97.14854	-419.17592	97.14854
16750.00000	97.45659	-421.96112	97.45659
16800.00000	97.88831	-424.84984	97.88831
16850.00000	98.35319	-427.77237	98.35319
16900.00000	98.74371	-431.01231	98.74371
16950.00000	99.17508	-433.70067	99.17508
17000.00000	99.41865	-436.68968	99.41865
17050.00000	99.79703	-439.13603	99.79703
17100.00000	99.91018	-441.80620	99.91018
17150.00000	100.34320	-445.84149	100.34320
17200.00000	100.64998	-448.95938	100.64998
17250.00000	100.86314	-452.60652	100.86314
17300.00000	101.18192	-455.63274	101.18192
17350.00000	101.18209	-458.17236	101.18209
17400.00000	101.47289	-461.78606	101.47289
17450.00000	101.58236	-465.40275	101.58236
17500.00000	101.83200	-468.54189	101.83200
17550.00000	102.04839	-471.47363	102.04839
17600.00000	102.27206	-474.12198	102.27206
17650.00000	102.36348	-477.98426	102.36348
17700.00000	102.45083	-481.21386	102.45083
17750.00000	102.72070	-483.80045	102.72070
17800.00000	102.75177	-487.30577	102.75177
17850.00000	102.92126	-489.83874	102.92126
17900.00000	103.06351	-492.68292	103.06351
17950.00000	103.22725	-496.08662	103.22725
18000.00000	103.34891	-499.60722	103.34891
18050.00000	103.61516	-502.07369	103.61516
18100.00000	103.65481	-505.56609	103.65481
18150.00000	103.78157	-508.18889	103.78157
18200.00000	103.84955	-511.51327	103.84955
18250.00000	104.01368	-513.83514	104.01368
18300.00000	104.16019	-517.25684	104.16019
18350.00000	104.30317	-520.27169	104.30317
18400.00000	104.34035	-523.55941	104.34035
18450.00000	104.39029	-527.78746	104.39029
18500.00000	104.51888	-530.96110	104.51888
18550.00000	104.56472	-533.63563	104.56472
18600.00000	104.72276	-537.43702	104.72276
18650.00000	104.66856	-540.24046	104.66856
18700.00000	104.69331	-543.91618	104.69331
18750.00000	104.80106	-546.93029	104.80106
18800.00000	104.91518	-549.63594	104.91518
18850.00000	104.80203	-552.88435	104.80203
18900.00000	104.82058	-555.70585	104.82058
18950.00000	104.90079	-559.06940	104.90079
19000.00000	104.78221	-561.37381	104.78221
19050.00000	104.91633	-564.46964	104.91633
19100.00000	104.89559	-566.97188	104.89559
19150.00000	105.06199	-569.68453	105.06199
19200.00000	105.11995	-572.09978	105.11995
19250.00000	105.14002	-575.99260	105.14002
19300.00000	105.14710	-578.15186	105.14710
19350.00000	105.20611	-581.07643	105.20611
19400.00000	105.26345	-583.86305	105.26345
19450.00000	105.40749	-586.20741	105.40749
19500.00000	105.40029	-589.91613	105.40029
19550.00000	105.47213	-592.91441	105.47213
19600.00000	105.62140	-596.59837	105.62140
19650.00000	105.59627	-599.40207	105.59627
19700.00000	105.55059	-602.72177	105.55059
19750.00000	105.57437	-605.45556	105.57437
19800.00000	105.68759	-609.46911	105.68759
19850.00000	105.71409	-612.57790	105.71409
19900.00000	105.69468	-616.66013	105.69468
19950.00000	105.65398	-619.87192	105.65398
20000.00000	105.64301	-623.33528	105.64301
20050.00000	105.62464	-626.70176	105.62464
20100.00000	105.49459	-630.07903	105.49459
20150.00000	105.50910	-632.66190	105.50910
20200.00000	105.38771	-636.82069	105.38771
20250.00000	105.24654	-639.90769	105.24654
20300.00000	105.07127	-643.12679	105.07127
20350.00000	105.01340	-646.52595	105.01340
20400.00000	104.82204	-648.72497	104.82204
20450.00000	104.59774	-651.82960	104.59774
20500.00000	104.50127	-654.92621	104.50127
20550.00000	104.10739	-656.92112	104.10739
20600.00000	104.01572	-659.20053	104.01572
20650.00000	103.83780	-661.46213	103.83780
20700.00000	103.59804	-663.37889	103.59804
20750.00000	103.48020	-665.21869	103.48020
20800.00000	103.26690	-666.55096	103.26690
20850.00000	103.17611	-668.25317	103.17611
20900.00000	102.99791	-669.58116	102.99791
20950.00000	102.87153	-670.32133	102.87153
21000.00000	102.78845	-671.26633	102.78845
21050.00000	102.89638	-671.88934	102.89638
21100.00000	102.85502	-672.67316	102.85502
21150.00000	102.97218	-673.98403	102.97218
21200.00000	103.09822	-674.66169	103.09822
21250.00000	103.20309	-677.14994	103.20309
21300.00000	103.38308	-678.23508	103.38308
21350.00000	103.49763	-679.88438	103.49763
21400.00000	103.62695	-682.27051	103.62695
21450.00000	103.76947	-684.52789	103.76947
21500.00000	103.90304	-687.35810	103.90304
21550.00000	103.89809	-689.61661	103.89809
21600.00000	104.04817	-692.41252	104.04817
21650.00000	104.06476	-695.33985	104.06476
21700.00000	104.08808	-697.84584	104.08808
21750.00000	104.11801	-700.56337	104.11801
21800.00000	104.11918	-703.43353	104.11918
21850.00000	104.04362	-705.74277	104.04362
21900.00000	104.02676	-708.48507	104.02676
21950.00000	103.97078	-710.64878	103.97078
22000.00000	103.97905	-713.04159	103.97905
22050.00000	103.90238	-714.99201	103.90238
22100.00000	103.83093	-717.33894	103.83093
22150.00000	103.79666	-719.44623	103.79666
22200.00000	103.79935	-721.65995	103.79935
22250.00000	103.70653	-723.30581	103.70653
22300.00000	103.61506	-725.46288	103.61506
22350.00000	103.73705	-727.59025	103.73705
22400.00000	103.66401	-729.89619	103.66401
22450.00000	103.58857	-731.51894	103.58857
22500.00000	103.54951	-732.56604	103.54951
22550.00000	103.54121	-734.96372	103.54121
22600.00000	103.51859	-737.51691	103.51859
22650.00000	103.50691	-739.41787	103.50691
22700.00000	103.45766	-740.87472	103.45766
22750.00000	103.45014	-741.39005	103.45014
22800.00000	103.52766	-745.11216	103.52766
