---ACOUSTIC CALIBRATION---
Filename: C:\Data\AZH DATA\AZH62\RightSecondary.calib
Date: 8/27/2019 4:15:00 PM
Format: 4
Probe Tube Correction File: C:\Data\Probe Tube Calibrations\50_ProbeTube.calib
Experiment VIs: 850
EPL_CFTS.exe V12.0.1 (2012)
DAQmx V9.6

Attenuation (dB): 40.000000
Min Freq (Hz): 50.000000
Max Freq (Hz): 49950.000000
Freq Step (Hz): 50.000000
Sample Rate (Hz): 100000.000000
[Smoothing]
Method=None
MA.Iterations=0
MA.Length=0
Loess.Length=0
Loess.Type=Linear
Loess.Robust=FALSE


Freq(Hz)	Mag(dB)	Phase(deg)	Unsmoothed(dB)

50.00000	97.10333	654.73893	97.10333
100.00000	75.59744	676.30454	75.59744
150.00000	66.33516	840.56707	66.33516
200.00000	75.33985	770.01272	75.33985
250.00000	85.18212	759.68305	85.18212
300.00000	85.03263	675.64167	85.03263
350.00000	81.59040	690.08812	81.59040
400.00000	84.26925	683.26820	84.26925
450.00000	84.25434	668.49656	84.25434
500.00000	86.24898	671.03788	86.24898
550.00000	88.38882	676.99936	88.38882
600.00000	91.76124	673.66313	91.76124
650.00000	92.42755	671.33071	92.42755
700.00000	94.13717	663.41606	94.13717
750.00000	95.91831	662.29362	95.91831
800.00000	99.18952	649.78232	99.18952
850.00000	101.02189	640.84274	101.02189
900.00000	102.65092	623.76766	102.65092
950.00000	103.76525	606.15746	103.76525
1000.00000	103.59651	588.41756	103.59651
1050.00000	103.02247	579.57713	103.02247
1100.00000	103.10482	567.34164	103.10482
1150.00000	102.16076	556.70065	102.16076
1200.00000	101.85618	554.28097	101.85618
1250.00000	101.87844	542.85365	101.87844
1300.00000	100.51031	537.28646	100.51031
1350.00000	99.83513	533.23660	99.83513
1400.00000	99.09840	532.58373	99.09840
1450.00000	99.25201	533.40313	99.25201
1500.00000	99.26244	531.13952	99.26244
1550.00000	99.34287	530.72122	99.34287
1600.00000	100.23132	526.00352	100.23132
1650.00000	100.70862	518.71145	100.70862
1700.00000	99.47042	514.23869	99.47042
1750.00000	99.30067	512.77859	99.30067
1800.00000	99.12351	508.84311	99.12351
1850.00000	98.51582	513.13885	98.51582
1900.00000	99.78851	514.22186	99.78851
1950.00000	100.42627	505.04383	100.42627
2000.00000	100.30199	497.22239	100.30199
2050.00000	99.16773	493.54770	99.16773
2100.00000	99.11411	491.69412	99.11411
2150.00000	98.93774	487.24704	98.93774
2200.00000	98.34475	484.14615	98.34475
2250.00000	97.48559	482.96543	97.48559
2300.00000	97.52120	485.43502	97.52120
2350.00000	97.16717	482.82781	97.16717
2400.00000	96.81885	483.00800	96.81885
2450.00000	96.76650	482.28722	96.76650
2500.00000	96.24820	483.55833	96.24820
2550.00000	95.91831	484.99885	95.91831
2600.00000	95.74154	490.88236	95.74154
2650.00000	96.74980	500.25729	96.74980
2700.00000	98.48684	501.42475	98.48684
2750.00000	100.06127	495.03029	100.06127
2800.00000	100.73712	485.11977	100.73712
2850.00000	100.60045	477.04184	100.60045
2900.00000	100.30496	470.35279	100.30496
2950.00000	99.81866	466.28003	99.81866
3000.00000	99.44894	462.67894	99.44894
3050.00000	98.96307	459.53808	98.96307
3100.00000	98.68212	458.14840	98.68212
3150.00000	98.26298	453.59624	98.26298
3200.00000	97.62209	451.78735	97.62209
3250.00000	96.82355	450.79640	96.82355
3300.00000	95.85059	450.49186	95.85059
3350.00000	94.76005	453.57387	94.76005
3400.00000	93.94425	462.48531	93.94425
3450.00000	93.97099	471.14469	93.97099
3500.00000	94.64976	477.22024	94.64976
3550.00000	95.19553	479.79088	95.19553
3600.00000	95.36854	481.53463	95.36854
3650.00000	95.20335	483.23404	95.20335
3700.00000	94.96925	492.47839	94.96925
3750.00000	95.71829	503.95975	95.71829
3800.00000	97.34870	512.28467	97.34870
3850.00000	99.39006	516.49399	99.39006
3900.00000	101.26838	516.75915	101.26838
3950.00000	103.02047	514.27706	103.02047
4000.00000	104.25755	510.73333	104.25755
4050.00000	105.40696	505.54658	105.40696
4100.00000	106.36741	501.62127	106.36741
4150.00000	107.32741	498.54444	107.32741
4200.00000	107.96716	494.91871	107.96716
4250.00000	108.89632	492.42799	108.89632
4300.00000	109.80629	490.01617	109.80629
4350.00000	110.79792	487.66778	110.79792
4400.00000	111.92045	484.96815	111.92045
4450.00000	113.18752	482.00902	113.18752
4500.00000	114.51990	477.48444	114.51990
4550.00000	115.93405	471.71472	115.93405
4600.00000	117.31732	464.58238	117.31732
4650.00000	118.71780	456.08427	118.71780
4700.00000	120.04233	445.49157	120.04233
4750.00000	121.18366	432.89236	121.18366
4800.00000	122.03175	418.36997	122.03175
4850.00000	122.42908	402.80346	122.42908
4900.00000	122.32719	387.15796	122.32719
4950.00000	121.73816	372.67420	121.73816
5000.00000	120.68751	360.68801	120.68751
5050.00000	119.62837	352.54651	119.62837
5100.00000	118.41032	343.07125	118.41032
5150.00000	115.92994	340.82809	115.92994
5200.00000	114.90552	359.23612	114.90552
5250.00000	117.99079	364.25899	117.99079
5300.00000	119.66525	350.84380	119.66525
5350.00000	119.93201	337.37747	119.93201
5400.00000	119.65333	326.53251	119.65333
5450.00000	119.21322	317.89608	119.21322
5500.00000	118.73154	310.52192	118.73154
5550.00000	118.26027	304.15294	118.26027
5600.00000	117.79552	298.33817	117.79552
5650.00000	117.35612	293.08016	117.35612
5700.00000	116.91251	287.96269	116.91251
5750.00000	116.49775	283.38174	116.49775
5800.00000	116.08225	278.93795	116.08225
5850.00000	115.69872	274.64735	115.69872
5900.00000	115.32385	270.58013	115.32385
5950.00000	114.95593	266.68395	114.95593
6000.00000	114.60131	263.02266	114.60131
6050.00000	114.23558	259.32524	114.23558
6100.00000	113.89533	255.78166	113.89533
6150.00000	113.55430	252.30522	113.55430
6200.00000	113.20556	248.96824	113.20556
6250.00000	112.88702	245.73437	112.88702
6300.00000	112.57549	242.56145	112.57549
6350.00000	112.24850	239.36385	112.24850
6400.00000	111.92611	236.37616	111.92611
6450.00000	111.63333	233.36575	111.63333
6500.00000	111.29700	230.50403	111.29700
6550.00000	110.96885	227.82371	110.96885
6600.00000	110.66370	225.28164	110.66370
6650.00000	110.35642	222.79008	110.35642
6700.00000	110.05102	220.28176	110.05102
6750.00000	109.74444	218.02849	109.74444
6800.00000	109.45506	215.91588	109.45506
6850.00000	109.16793	213.93395	109.16793
6900.00000	108.90281	212.04170	108.90281
6950.00000	108.65158	210.37846	108.65158
7000.00000	108.43802	208.72157	108.43802
7050.00000	108.22500	206.94230	108.22500
7100.00000	108.05440	205.16760	108.05440
7150.00000	107.87124	203.72014	107.87124
7200.00000	107.69095	202.20011	107.69095
7250.00000	107.51896	200.81059	107.51896
7300.00000	107.42030	199.56362	107.42030
7350.00000	107.31007	198.41062	107.31007
7400.00000	107.25441	197.22755	107.25441
7450.00000	107.23122	195.96581	107.23122
7500.00000	107.25750	194.75885	107.25750
7550.00000	107.32236	193.38598	107.32236
7600.00000	107.39256	191.70935	107.39256
7650.00000	107.49242	189.83956	107.49242
7700.00000	107.64603	187.89393	107.64603
7750.00000	107.75329	185.57988	107.75329
7800.00000	107.91176	182.98413	107.91176
7850.00000	108.05428	180.12258	108.05428
7900.00000	108.18526	177.06397	108.18526
7950.00000	108.28520	173.63357	108.28520
8000.00000	108.37248	169.98640	108.37248
8050.00000	108.43017	165.97687	108.43017
8100.00000	108.47059	162.44604	108.47059
8150.00000	108.40917	158.50739	108.40917
8200.00000	108.36450	154.78330	108.36450
8250.00000	108.26081	150.58894	108.26081
8300.00000	108.18318	146.60871	108.18318
8350.00000	108.02474	142.72777	108.02474
8400.00000	107.82816	138.46490	107.82816
8450.00000	107.54737	134.72322	107.54737
8500.00000	107.28295	131.06539	107.28295
8550.00000	107.05057	127.87053	107.05057
8600.00000	106.75696	124.32370	106.75696
8650.00000	106.44223	121.08234	106.44223
8700.00000	106.16865	117.48124	106.16865
8750.00000	105.80478	115.23965	105.80478
8800.00000	105.50358	111.97212	105.50358
8850.00000	105.15993	109.17107	105.15993
8900.00000	104.86560	106.78329	104.86560
8950.00000	104.58028	104.18924	104.58028
9000.00000	104.25252	102.11256	104.25252
9050.00000	104.06082	99.64267	104.06082
9100.00000	103.83284	97.68914	103.83284
9150.00000	103.63791	95.75501	103.63791
9200.00000	103.48059	93.84346	103.48059
9250.00000	103.25689	91.96052	103.25689
9300.00000	103.09408	90.25950	103.09408
9350.00000	102.95148	88.35860	102.95148
9400.00000	102.71261	86.92461	102.71261
9450.00000	102.60457	85.20616	102.60457
9500.00000	102.51473	83.44274	102.51473
9550.00000	102.36558	81.49188	102.36558
9600.00000	102.31378	79.25593	102.31378
9650.00000	102.22387	76.98467	102.22387
9700.00000	102.16091	75.35715	102.16091
9750.00000	102.15035	72.62311	102.15035
9800.00000	102.03127	71.04609	102.03127
9850.00000	101.91976	69.61941	101.91976
9900.00000	101.65481	67.59534	101.65481
9950.00000	101.47268	66.13289	101.47268
10000.00000	101.26782	63.80765	101.26782
10050.00000	101.02323	61.76111	101.02323
10100.00000	100.77341	59.60152	100.77341
10150.00000	100.49529	56.57835	100.49529
10200.00000	100.33379	54.02397	100.33379
10250.00000	100.15057	51.40626	100.15057
10300.00000	100.13228	49.08465	100.13228
10350.00000	100.00656	47.19595	100.00656
10400.00000	99.84009	45.22976	99.84009
10450.00000	99.80467	43.30566	99.80467
10500.00000	99.73059	41.64603	99.73059
10550.00000	99.58769	39.71971	99.58769
10600.00000	99.40773	37.90307	99.40773
10650.00000	99.22133	36.18690	99.22133
10700.00000	99.07977	33.04385	99.07977
10750.00000	99.01933	30.50790	99.01933
10800.00000	98.86864	28.20154	98.86864
10850.00000	98.78375	25.07781	98.78375
10900.00000	98.70615	23.06464	98.70615
10950.00000	98.58001	21.34712	98.58001
11000.00000	98.41754	19.39804	98.41754
11050.00000	98.08830	17.48741	98.08830
11100.00000	97.84143	14.96514	97.84143
11150.00000	97.49251	12.90665	97.49251
11200.00000	97.29984	10.64168	97.29984
11250.00000	96.99157	 8.03900	96.99157
11300.00000	96.70642	 5.81418	96.70642
11350.00000	96.50406	 4.37228	96.50406
11400.00000	96.20049	 2.87897	96.20049
11450.00000	96.00431	 1.08032	96.00431
11500.00000	95.89486	 0.51831	95.89486
11550.00000	95.56594	-0.47334	95.56594
11600.00000	95.43031	-2.49682	95.43031
11650.00000	95.19866	-2.90775	95.19866
11700.00000	95.08015	-4.27441	95.08015
11750.00000	95.03483	-5.77963	95.03483
11800.00000	94.97575	-7.59650	94.97575
11850.00000	94.98722	-7.98446	94.98722
11900.00000	94.76724	-9.79474	94.76724
11950.00000	94.73970	-10.82157	94.73970
12000.00000	94.57739	-12.10137	94.57739
12050.00000	94.38636	-13.59516	94.38636
12100.00000	94.28979	-16.34431	94.28979
12150.00000	94.17149	-18.79015	94.17149
12200.00000	94.15352	-21.36828	94.15352
12250.00000	94.07848	-23.18196	94.07848
12300.00000	95.10224	-25.71176	95.10224
12350.00000	93.86771	-27.82357	93.86771
12400.00000	93.66335	-29.06644	93.66335
12450.00000	93.44208	-30.78792	93.44208
12500.00000	93.18651	-33.27766	93.18651
12550.00000	92.89867	-35.42706	92.89867
12600.00000	92.53755	-37.66676	92.53755
12650.00000	92.47425	-39.52038	92.47425
12700.00000	92.11794	-41.39070	92.11794
12750.00000	91.82591	-43.28498	91.82591
12800.00000	91.56926	-44.21932	91.56926
12850.00000	91.01800	-45.29177	91.01800
12900.00000	90.80331	-46.84727	90.80331
12950.00000	90.61673	-48.34046	90.61673
13000.00000	90.40104	-50.27542	90.40104
13050.00000	90.25264	-49.95511	90.25264
13100.00000	90.00324	-50.93512	90.00324
13150.00000	89.82549	-52.58690	89.82549
13200.00000	89.56880	-51.92398	89.56880
13250.00000	89.20839	-52.72269	89.20839
13300.00000	88.90612	-51.82938	88.90612
13350.00000	88.65447	-53.89967	88.65447
13400.00000	88.72962	-55.49401	88.72962
13450.00000	88.38749	-54.85969	88.38749
13500.00000	88.37014	-54.40952	88.37014
13550.00000	88.04805	-55.20158	88.04805
13600.00000	87.84507	-54.99699	87.84507
13650.00000	87.69576	-55.11731	87.69576
13700.00000	87.25246	-56.07215	87.25246
13750.00000	87.01781	-56.06490	87.01781
13800.00000	86.68670	-57.54590	86.68670
13850.00000	86.53643	-58.84546	86.53643
13900.00000	86.37083	-59.09461	86.37083
13950.00000	86.47702	-58.90057	86.47702
14000.00000	86.49523	-58.14292	86.49523
14050.00000	86.51424	-57.54706	86.51424
14100.00000	86.33629	-56.37569	86.33629
14150.00000	86.21638	-56.18466	86.21638
14200.00000	86.22439	-55.52302	86.22439
14250.00000	86.40210	-53.93284	86.40210
14300.00000	86.40588	-53.66162	86.40588
14350.00000	86.20377	-52.21296	86.20377
14400.00000	85.96212	-53.12375	85.96212
14450.00000	85.98540	-53.14753	85.98540
14500.00000	86.10203	-54.08310	86.10203
14550.00000	86.26589	-53.67360	86.26589
14600.00000	86.29844	-53.91085	86.29844
14650.00000	86.56797	-51.70309	86.56797
14700.00000	86.60706	-54.95598	86.60706
14750.00000	86.66067	-54.09509	86.66067
14800.00000	86.48845	-53.62018	86.48845
14850.00000	86.84935	-54.50092	86.84935
14900.00000	86.97030	-55.14325	86.97030
14950.00000	87.13095	-56.12745	87.13095
15000.00000	87.39258	-58.01101	87.39258
15050.00000	87.12527	-56.79622	87.12527
15100.00000	87.38795	-56.45800	87.38795
15150.00000	87.78355	-57.91892	87.78355
15200.00000	87.72956	-56.28168	87.72956
15250.00000	87.61158	-57.90544	87.61158
15300.00000	87.82107	-57.41897	87.82107
15350.00000	87.76039	-58.58663	87.76039
15400.00000	87.72120	-57.66454	87.72120
15450.00000	87.80077	-59.27583	87.80077
15500.00000	88.07301	-60.15712	88.07301
15550.00000	88.26425	-61.40035	88.26425
15600.00000	88.57163	-62.65356	88.57163
15650.00000	88.85762	-60.54702	88.85762
15700.00000	88.85701	-62.38421	88.85701
15750.00000	89.07460	-62.02433	89.07460
15800.00000	89.29442	-61.57239	89.29442
15850.00000	89.27188	-63.10496	89.27188
15900.00000	89.36014	-63.87354	89.36014
15950.00000	89.90498	-63.16745	89.90498
16000.00000	89.86897	-63.60978	89.86897
16050.00000	90.24537	-65.33497	90.24537
16100.00000	90.19620	-67.02205	90.19620
16150.00000	90.40764	-67.90111	90.40764
16200.00000	90.75305	-70.06490	90.75305
16250.00000	91.05171	-69.05685	91.05171
16300.00000	91.39904	-70.04456	91.39904
16350.00000	91.52903	-70.72390	91.52903
16400.00000	91.72078	-72.07139	91.72078
16450.00000	91.82866	-73.37969	91.82866
16500.00000	92.15207	-75.35172	92.15207
16550.00000	92.38291	-76.34847	92.38291
16600.00000	92.70490	-77.71710	92.70490
16650.00000	92.94313	-78.77587	92.94313
16700.00000	93.14994	-79.82035	93.14994
16750.00000	93.31895	-81.38572	93.31895
16800.00000	93.51754	-83.75080	93.51754
16850.00000	93.91630	-85.23904	93.91630
16900.00000	94.14854	-86.59452	94.14854
16950.00000	94.40847	-87.58793	94.40847
17000.00000	94.49769	-88.95772	94.49769
17050.00000	94.81548	-90.52334	94.81548
17100.00000	94.96686	-92.28606	94.96686
17150.00000	95.37104	-94.67321	95.37104
17200.00000	95.62992	-96.76620	95.62992
17250.00000	95.76848	-98.72244	95.76848
17300.00000	96.01218	-100.69402	96.01218
17350.00000	96.06567	-102.27884	96.06567
17400.00000	96.29897	-104.59150	96.29897
17450.00000	96.37591	-107.60529	96.37591
17500.00000	96.67014	-109.08731	96.67014
17550.00000	96.83025	-111.04442	96.83025
17600.00000	97.10107	-112.48405	97.10107
17650.00000	97.19574	-115.41020	97.19574
17700.00000	97.33741	-117.49376	97.33741
17750.00000	97.72212	-119.11308	97.72212
17800.00000	97.75542	-121.13358	97.75542
17850.00000	97.96229	-122.78597	97.96229
17900.00000	98.09976	-124.07510	98.09976
17950.00000	98.37257	-127.16252	98.37257
18000.00000	98.54820	-129.84672	98.54820
18050.00000	98.92287	-131.07811	98.92287
18100.00000	99.04799	-134.03275	99.04799
18150.00000	99.23024	-135.09943	99.23024
18200.00000	99.36383	-138.34245	99.36383
18250.00000	99.64384	-139.71312	99.64384
18300.00000	99.88886	-142.23808	99.88886
18350.00000	100.15029	-144.55858	100.15029
18400.00000	100.28969	-147.31134	100.28969
18450.00000	100.42401	-150.86223	100.42401
18500.00000	100.67070	-153.26571	100.67070
18550.00000	100.84031	-155.42199	100.84031
18600.00000	101.19608	-158.63189	101.19608
18650.00000	101.23597	-160.72260	101.23597
18700.00000	101.40933	-163.94157	101.40933
18750.00000	101.65116	-166.51942	101.65116
18800.00000	101.96687	-168.70336	101.96687
18850.00000	102.04189	-171.91273	102.04189
18900.00000	102.26687	-174.57205	102.26687
18950.00000	102.49426	-178.27550	102.49426
19000.00000	102.55583	-180.90358	102.55583
19050.00000	102.87525	-184.34043	102.87525
19100.00000	103.00544	-187.59887	103.00544
19150.00000	103.32618	-191.09040	103.32618
19200.00000	103.46812	-194.12438	103.46812
19250.00000	103.55287	-198.94183	103.55287
19300.00000	103.61648	-202.04120	103.61648
19350.00000	103.72821	-205.88641	103.72821
19400.00000	103.77454	-209.49060	103.77454
19450.00000	103.91518	-212.58275	103.91518
19500.00000	103.85100	-217.17926	103.85100
19550.00000	103.91637	-220.75616	103.91637
19600.00000	104.00756	-225.00490	104.00756
19650.00000	103.93281	-228.09385	103.93281
19700.00000	103.82152	-231.64182	103.82152
19750.00000	103.79837	-234.67800	103.79837
19800.00000	103.81783	-239.08444	103.81783
19850.00000	103.80696	-242.17413	103.80696
19900.00000	103.70909	-246.25085	103.70909
19950.00000	103.61662	-249.39587	103.61662
20000.00000	103.54172	-252.84820	103.54172
20050.00000	103.48041	-256.08650	103.48041
20100.00000	103.30004	-259.35958	103.30004
20150.00000	103.28918	-261.61635	103.28918
20200.00000	103.13058	-265.45566	103.13058
20250.00000	102.95118	-268.36327	102.95118
20300.00000	102.74335	-271.39253	102.74335
20350.00000	102.67625	-274.45883	102.67625
20400.00000	102.47283	-276.40814	102.47283
20450.00000	102.24007	-279.21095	102.24007
20500.00000	102.13018	-281.93547	102.13018
20550.00000	101.73119	-283.58339	101.73119
20600.00000	101.64904	-285.56068	101.64904
20650.00000	101.47135	-287.58462	101.47135
20700.00000	101.24356	-289.29237	101.24356
20750.00000	101.12837	-290.70715	101.12837
20800.00000	100.93364	-291.76948	100.93364
20850.00000	100.86250	-293.04766	100.86250
20900.00000	100.69538	-293.95241	100.69538
20950.00000	100.61177	-294.29791	100.61177
21000.00000	100.57501	-294.91605	100.57501
21050.00000	100.72140	-295.14173	100.72140
21100.00000	100.74627	-295.51270	100.74627
21150.00000	100.91845	-296.43772	100.91845
21200.00000	101.11184	-296.98670	101.11184
21250.00000	101.29612	-299.22634	101.29612
21300.00000	101.57619	-300.12753	101.57619
21350.00000	101.75708	-301.63730	101.75708
21400.00000	101.97292	-303.97353	101.97292
21450.00000	102.18299	-306.24001	102.18299
21500.00000	102.41243	-309.11582	102.41243
21550.00000	102.50981	-311.36067	102.50981
21600.00000	102.72362	-314.24150	102.72362
21650.00000	102.79208	-317.19587	102.79208
21700.00000	102.90266	-319.90575	102.90266
21750.00000	102.98831	-322.83774	102.98831
21800.00000	103.05725	-325.87529	103.05725
21850.00000	103.02213	-328.53794	103.02213
21900.00000	103.08221	-331.35205	103.08221
21950.00000	103.07328	-333.99432	103.07328
22000.00000	103.15784	-336.81199	103.15784
22050.00000	103.13170	-338.97737	103.13170
22100.00000	103.11249	-341.56898	103.11249
22150.00000	103.04939	-344.04233	103.04939
22200.00000	103.10662	-346.58421	103.10662
22250.00000	103.02818	-348.68616	103.02818
22300.00000	102.91048	-350.80065	102.91048
22350.00000	102.98088	-353.43494	102.98088
22400.00000	102.96361	-355.75951	102.96361
22450.00000	102.89668	-357.63385	102.89668
22500.00000	102.78964	-358.86690	102.78964
22550.00000	102.75411	-361.02218	102.75411
22600.00000	102.76672	-363.66022	102.76672
22650.00000	102.74221	-365.42004	102.74221
22700.00000	102.70756	-367.07112	102.70756
22750.00000	102.61389	-367.03797	102.61389
22800.00000	102.66865	-370.97490	102.66865
22850.00000	102.71767	-373.40022	102.71767
22900.00000	102.74533	-373.51565	102.74533
22950.00000	102.79575	-375.18698	102.79575
23000.00000	102.74450	-376.53697	102.74450
23050.00000	102.73560	-378.74875	102.73560
23100.00000	102.84968	-379.59383	102.84968
23150.00000	102.85716	-380.51317	102.85716
23200.00000	102.98589	-383.74210	102.98589
23250.00000	102.89210	-385.95039	102.89210
