---ACOUSTIC CALIBRATION---
Filename: C:\Data\AZH DATA\AZH62\RightSecondary.calib
Date: 8/27/2019 4:13:40 PM
Format: 4
Probe Tube Correction File: C:\Data\Probe Tube Calibrations\50_ProbeTube.calib
Experiment VIs: 850
EPL_CFTS.exe V12.0.1 (2012)
DAQmx V9.6

Attenuation (dB): 40.000000
Min Freq (Hz): 50.000000
Max Freq (Hz): 49950.000000
Freq Step (Hz): 50.000000
Sample Rate (Hz): 100000.000000
[Smoothing]
Method=None
MA.Iterations=0
MA.Length=0
Loess.Length=0
Loess.Type=Linear
Loess.Robust=FALSE


Freq(Hz)	Mag(dB)	Phase(deg)	Unsmoothed(dB)

50.00000	102.90617	338.76636	102.90617
100.00000	79.55858	313.11270	79.55858
150.00000	71.69091	418.27704	71.69091
200.00000	69.80257	388.15124	69.80257
250.00000	87.36261	392.56296	87.36261
300.00000	85.10207	325.12633	85.10207
350.00000	82.43618	336.96307	82.43618
400.00000	84.60214	330.88321	84.60214
450.00000	84.55255	306.79667	84.55255
500.00000	87.06946	330.62301	87.06946
550.00000	88.56634	318.57326	88.56634
600.00000	91.32454	320.78989	91.32454
650.00000	92.26591	308.07068	92.26591
700.00000	94.25310	302.44890	94.25310
750.00000	95.49781	295.60342	95.49781
800.00000	98.21527	290.09181	98.21527
850.00000	100.31965	277.27562	100.31965
900.00000	101.91780	259.81887	101.91780
950.00000	103.08216	241.87951	103.08216
1000.00000	102.92919	224.40517	102.92919
1050.00000	102.29533	215.27339	102.29533
1100.00000	102.46750	203.52087	102.46750
1150.00000	101.48815	192.40405	101.48815
1200.00000	100.97869	190.28604	100.97869
1250.00000	101.02011	179.02806	101.02011
1300.00000	99.83194	171.54537	99.83194
1350.00000	98.95531	168.55579	98.95531
1400.00000	98.35957	168.84432	98.35957
1450.00000	98.23832	169.68825	98.23832
1500.00000	98.52901	166.78062	98.52901
1550.00000	98.21273	166.96655	98.21273
1600.00000	99.64756	164.63594	99.64756
1650.00000	99.73433	154.84409	99.73433
1700.00000	98.79580	149.91196	98.79580
1750.00000	98.24575	149.36304	98.24575
1800.00000	97.82374	148.14239	97.82374
1850.00000	97.58202	149.74049	97.58202
1900.00000	98.55321	151.01817	98.55321
1950.00000	99.36984	142.65574	99.36984
2000.00000	99.26254	133.97421	99.26254
2050.00000	98.08915	130.35646	98.08915
2100.00000	98.31885	129.06254	98.31885
2150.00000	97.70299	124.35866	97.70299
2200.00000	97.39167	122.59595	97.39167
2250.00000	96.46376	119.63849	96.46376
2300.00000	96.34188	121.04685	96.34188
2350.00000	96.07013	120.51837	96.07013
2400.00000	95.89457	120.53065	95.89457
2450.00000	95.81142	119.58042	95.81142
2500.00000	95.06766	118.49445	95.06766
2550.00000	94.84954	124.11224	94.84954
2600.00000	94.96059	129.08790	94.96059
2650.00000	95.53894	138.42411	95.53894
2700.00000	97.36270	137.69512	97.36270
2750.00000	98.79876	133.23535	98.79876
2800.00000	99.40417	123.60271	99.40417
2850.00000	99.39440	114.50731	99.39440
2900.00000	99.03534	108.06515	99.03534
2950.00000	98.67386	103.88070	98.67386
3000.00000	98.28233	100.13108	98.28233
3050.00000	97.81418	96.91493	97.81418
3100.00000	97.61047	95.26376	97.61047
3150.00000	97.07519	91.43840	97.07519
3200.00000	96.37026	89.32668	96.37026
3250.00000	95.67876	88.39228	95.67876
3300.00000	94.69901	88.01309	94.69901
3350.00000	93.50749	91.13283	93.50749
3400.00000	92.74413	99.64811	92.74413
3450.00000	92.70389	109.08633	92.70389
3500.00000	93.39448	115.23624	93.39448
3550.00000	93.93136	117.08715	93.93136
3600.00000	94.21808	118.06503	94.21808
3650.00000	94.08951	120.74987	94.08951
3700.00000	93.67782	129.43005	93.67782
3750.00000	94.63981	140.47556	94.63981
3800.00000	96.52928	150.09796	96.52928
3850.00000	98.10306	153.48815	98.10306
3900.00000	99.96523	154.51033	99.96523
3950.00000	101.67106	152.20935	101.67106
4000.00000	103.00135	148.42341	103.00135
4050.00000	104.11648	143.71577	104.11648
4100.00000	105.01021	139.99360	105.01021
4150.00000	106.01308	136.75005	106.01308
4200.00000	106.80429	133.58526	106.80429
4250.00000	107.59960	130.53276	107.59960
4300.00000	108.51435	128.06873	108.51435
4350.00000	109.46999	125.90902	109.46999
4400.00000	110.57534	123.59825	110.57534
4450.00000	111.83332	120.43360	111.83332
4500.00000	113.18899	116.07472	113.18899
4550.00000	114.58654	110.40949	114.58654
4600.00000	115.95649	103.39802	115.95649
4650.00000	117.37246	94.94294	117.37246
4700.00000	118.70630	84.44412	118.70630
4750.00000	119.86490	71.94503	119.86490
4800.00000	120.74492	57.47163	120.74492
4850.00000	121.15548	41.92591	121.15548
4900.00000	121.07008	26.23859	121.07008
4950.00000	120.49378	11.67544	120.49378
5000.00000	119.44644	-0.38949	119.44644
5050.00000	118.38139	-8.62815	118.38139
5100.00000	117.16972	-18.13116	117.16972
5150.00000	114.69090	-20.60943	114.69090
5200.00000	113.58190	-2.32315	113.58190
5250.00000	116.66110	 3.30087	116.66110
5300.00000	118.37826	-10.00294	118.37826
5350.00000	118.67014	-23.51965	118.67014
5400.00000	118.40243	-34.45316	118.40243
5450.00000	117.96105	-43.13160	117.96105
5500.00000	117.48212	-50.53875	117.48212
5550.00000	117.00881	-56.94087	117.00881
5600.00000	116.54188	-62.75444	116.54188
5650.00000	116.10210	-68.02658	116.10210
5700.00000	115.65644	-73.12891	115.65644
5750.00000	115.24014	-77.70409	115.24014
5800.00000	114.82217	-82.18043	114.82217
5850.00000	114.43805	-86.45432	114.43805
5900.00000	114.05979	-90.52715	114.05979
5950.00000	113.68900	-94.41603	113.68900
6000.00000	113.33550	-98.08300	113.33550
6050.00000	112.97165	-101.76677	112.97165
6100.00000	112.62865	-105.30169	112.62865
6150.00000	112.28149	-108.75540	112.28149
6200.00000	111.93002	-112.05352	111.93002
6250.00000	111.60747	-115.28925	111.60747
6300.00000	111.30143	-118.48784	111.30143
6350.00000	110.97444	-121.66269	110.97444
6400.00000	110.64741	-124.61508	110.64741
6450.00000	110.35403	-127.63528	110.35403
6500.00000	110.01614	-130.50595	110.01614
6550.00000	109.68873	-133.13355	109.68873
6600.00000	109.37973	-135.71392	109.37973
6650.00000	109.08192	-138.20187	109.08192
6700.00000	108.77036	-140.67872	108.77036
6750.00000	108.46497	-142.92015	108.46497
6800.00000	108.16823	-145.02344	108.16823
6850.00000	107.87996	-146.98513	107.87996
6900.00000	107.61128	-148.83322	107.61128
6950.00000	107.35950	-150.47584	107.35950
7000.00000	107.14332	-152.16551	107.14332
7050.00000	106.93801	-153.89463	106.93801
7100.00000	106.76112	-155.59630	106.76112
7150.00000	106.58343	-157.09029	106.58343
7200.00000	106.40873	-158.51523	106.40873
7250.00000	106.23615	-159.92266	106.23615
7300.00000	106.13665	-161.12948	106.13665
7350.00000	106.02971	-162.28052	106.02971
7400.00000	105.98085	-163.58467	105.98085
7450.00000	105.94569	-164.71127	105.94569
7500.00000	105.96544	-165.90431	105.96544
7550.00000	106.03858	-167.31301	106.03858
7600.00000	106.11771	-168.97932	106.11771
7650.00000	106.21423	-170.84754	106.21423
7700.00000	106.36310	-172.83988	106.36310
7750.00000	106.48061	-175.10209	106.48061
7800.00000	106.63382	-177.63949	106.63382
7850.00000	106.78704	-180.53528	106.78704
7900.00000	106.91213	-183.61273	106.91213
7950.00000	107.01553	-187.03462	107.01553
8000.00000	107.10153	-190.50133	107.10153
8050.00000	107.15706	-194.62284	107.15706
8100.00000	107.19891	-198.15566	107.19891
8150.00000	107.13820	-202.10462	107.13820
8200.00000	107.09253	-205.88337	107.09253
8250.00000	106.99530	-209.99370	106.99530
8300.00000	106.91550	-213.99510	106.91550
8350.00000	106.75811	-217.79701	106.75811
8400.00000	106.55958	-222.05219	106.55958
8450.00000	106.28007	-225.82602	106.28007
8500.00000	106.02675	-229.49196	106.02675
8550.00000	105.79459	-232.69550	105.79459
8600.00000	105.51118	-236.24421	105.51118
8650.00000	105.18689	-239.42585	105.18689
8700.00000	104.91917	-243.13718	104.91917
8750.00000	104.56424	-245.32727	104.56424
8800.00000	104.26223	-248.56040	104.26223
8850.00000	103.91772	-251.38332	103.91772
8900.00000	103.62907	-253.70592	103.62907
8950.00000	103.33131	-256.35737	103.33131
9000.00000	103.00972	-258.45582	103.00972
9050.00000	102.81441	-260.93978	102.81441
9100.00000	102.58179	-262.97943	102.58179
9150.00000	102.37830	-264.86583	102.37830
9200.00000	102.22163	-266.77683	102.22163
9250.00000	102.00229	-268.71476	102.00229
9300.00000	101.84178	-270.55625	101.84178
9350.00000	101.71542	-272.37675	101.71542
9400.00000	101.46408	-273.83675	101.46408
9450.00000	101.36355	-275.55307	101.36355
9500.00000	101.27053	-277.33112	101.27053
9550.00000	101.11887	-279.28802	101.11887
9600.00000	101.06606	-281.43934	101.06606
9650.00000	100.98054	-283.71590	100.98054
9700.00000	100.89854	-285.24094	100.89854
9750.00000	100.87886	-288.01428	100.87886
9800.00000	100.76577	-289.68253	100.76577
9850.00000	100.64907	-291.17657	100.64907
9900.00000	100.38068	-293.18712	100.38068
9950.00000	100.19912	-294.69443	100.19912
10000.00000	100.00642	-297.08520	100.00642
10050.00000	99.76742	-299.13690	99.76742
10100.00000	99.54053	-301.23236	99.54053
10150.00000	99.24576	-304.21003	99.24576
10200.00000	99.07798	-306.65260	99.07798
10250.00000	98.89407	-309.25525	98.89407
10300.00000	98.87602	-311.55960	98.87602
10350.00000	98.72721	-313.41496	98.72721
10400.00000	98.54757	-315.47459	98.54757
10450.00000	98.51293	-317.46039	98.51293
10500.00000	98.44282	-319.16729	98.44282
10550.00000	98.29696	-321.14949	98.29696
10600.00000	98.12479	-322.96334	98.12479
10650.00000	97.94889	-324.68568	97.94889
10700.00000	97.82407	-327.81242	97.82407
10750.00000	97.74728	-330.29427	97.74728
10800.00000	97.59270	-332.45251	97.59270
10850.00000	97.49223	-335.60097	97.49223
10900.00000	97.39636	-337.64336	97.39636
10950.00000	97.29069	-339.43864	97.29069
11000.00000	97.12081	-341.39531	97.12081
11050.00000	96.78667	-343.33696	96.78667
11100.00000	96.54489	-345.87065	96.54489
11150.00000	96.20369	-347.93430	96.20369
11200.00000	96.01319	-350.10229	96.01319
11250.00000	95.70623	-352.60861	95.70623
11300.00000	95.41279	-354.85543	95.41279
11350.00000	95.18890	-356.33351	95.18890
11400.00000	94.88964	-357.76959	94.88964
11450.00000	94.68563	-359.62695	94.68563
11500.00000	94.57030	-360.26733	94.57030
11550.00000	94.24831	-361.24293	94.24831
11600.00000	94.12740	-363.22409	94.12740
11650.00000	93.89147	-363.60856	93.89147
11700.00000	93.78708	-364.85641	93.78708
11750.00000	93.73880	-366.38769	93.73880
11800.00000	93.67328	-368.20472	93.67328
11850.00000	93.67191	-368.54051	93.67191
11900.00000	93.43417	-370.44864	93.43417
11950.00000	93.42500	-371.48764	93.42500
12000.00000	93.27033	-372.72919	93.27033
12050.00000	93.07672	-374.25665	93.07672
12100.00000	92.99251	-377.09390	92.99251
12150.00000	92.87088	-379.37364	92.87088
12200.00000	92.85583	-382.00052	92.85583
12250.00000	92.77885	-383.79406	92.77885
12300.00000	93.79032	-386.44788	93.79032
12350.00000	92.55704	-388.47217	92.55704
12400.00000	92.36460	-389.76333	92.36460
12450.00000	92.13344	-391.58398	92.13344
12500.00000	91.85809	-394.07396	91.85809
12550.00000	91.59389	-396.09411	91.59389
12600.00000	91.26481	-398.39086	91.26481
12650.00000	91.13553	-400.25341	91.13553
12700.00000	90.79686	-402.07852	90.79686
12750.00000	90.53447	-404.08823	90.53447
12800.00000	90.21743	-404.94954	90.21743
12850.00000	89.67099	-405.97404	89.67099
12900.00000	89.46454	-407.66833	89.46454
12950.00000	89.32285	-408.91552	89.32285
13000.00000	89.05979	-410.78189	89.05979
13050.00000	88.87850	-410.71324	88.87850
13100.00000	88.63332	-411.38814	88.63332
13150.00000	88.50388	-413.02964	88.50388
13200.00000	88.18571	-412.56570	88.18571
13250.00000	87.87971	-413.43624	87.87971
13300.00000	87.62570	-412.68525	87.62570
13350.00000	87.35572	-414.23032	87.35572
13400.00000	87.31773	-415.85467	87.31773
13450.00000	87.01736	-415.01442	87.01736
13500.00000	86.98324	-415.02871	86.98324
13550.00000	86.60941	-415.40941	86.60941
13600.00000	86.48701	-415.25035	86.48701
13650.00000	86.26245	-415.63717	86.26245
13700.00000	85.83032	-416.45819	85.83032
13750.00000	85.62008	-416.56154	85.62008
13800.00000	85.39820	-418.00556	85.39820
13850.00000	85.22345	-418.98064	85.22345
13900.00000	84.96100	-419.41163	84.96100
13950.00000	84.99597	-418.69112	84.99597
14000.00000	85.12016	-418.32568	85.12016
14050.00000	85.06414	-418.07185	85.06414
14100.00000	84.93304	-416.60282	84.93304
14150.00000	84.87579	-416.80738	84.87579
14200.00000	84.85162	-415.50242	84.85162
14250.00000	85.01703	-412.70628	85.01703
14300.00000	84.89826	-413.53939	84.89826
14350.00000	84.85017	-412.74717	84.85017
14400.00000	84.58906	-412.69499	84.58906
14450.00000	84.66624	-413.13655	84.66624
14500.00000	84.61878	-413.94436	84.61878
14550.00000	84.98848	-413.57357	84.98848
14600.00000	85.01684	-414.38494	85.01684
14650.00000	85.13764	-411.80524	85.13764
14700.00000	85.23422	-415.49929	85.23422
14750.00000	85.22136	-414.64754	85.22136
14800.00000	85.09109	-413.42007	85.09109
14850.00000	85.35884	-414.06583	85.35884
14900.00000	85.56225	-415.23704	85.56225
14950.00000	85.69678	-415.28148	85.69678
15000.00000	85.95289	-416.36936	85.95289
15050.00000	85.94744	-415.87353	85.94744
15100.00000	86.01710	-415.46525	86.01710
15150.00000	86.34184	-416.90914	86.34184
15200.00000	86.33988	-416.67524	86.33988
15250.00000	86.24322	-416.91206	86.24322
15300.00000	86.52772	-417.63566	86.52772
15350.00000	86.48269	-418.34961	86.48269
15400.00000	86.35435	-417.76878	86.35435
15450.00000	86.63271	-419.05648	86.63271
15500.00000	86.86797	-420.02425	86.86797
15550.00000	87.08279	-422.08876	87.08279
15600.00000	87.17552	-422.16354	87.17552
15650.00000	87.43515	-420.47882	87.43515
15700.00000	87.59973	-422.01328	87.59973
15750.00000	87.64319	-422.58943	87.64319
15800.00000	87.75127	-422.25074	87.75127
15850.00000	87.90873	-422.67044	87.90873
15900.00000	87.96265	-423.93634	87.96265
15950.00000	88.36045	-423.79032	88.36045
16000.00000	88.49905	-424.10687	88.49905
16050.00000	88.84624	-425.17182	88.84624
16100.00000	88.87432	-426.59787	88.87432
16150.00000	89.03315	-427.58537	89.03315
16200.00000	89.37302	-429.29897	89.37302
16250.00000	89.68546	-428.62537	89.68546
16300.00000	90.04592	-429.38389	90.04592
16350.00000	90.08903	-429.87652	90.08903
16400.00000	90.19602	-431.40071	90.19602
16450.00000	90.53802	-432.88879	90.53802
16500.00000	90.74150	-434.05272	90.74150
16550.00000	90.97662	-435.61411	90.97662
16600.00000	91.38768	-437.08122	91.38768
16650.00000	91.56272	-438.34621	91.56272
16700.00000	91.89713	-438.12264	91.89713
16750.00000	91.92072	-441.20545	91.92072
16800.00000	92.29397	-442.67845	92.29397
16850.00000	92.58603	-444.06794	92.58603
16900.00000	92.94929	-446.10212	92.94929
16950.00000	93.08724	-446.95150	93.08724
17000.00000	93.21016	-449.07926	93.21016
17050.00000	93.51273	-450.13771	93.51273
17100.00000	93.62004	-451.96205	93.62004
17150.00000	93.99793	-454.81805	93.99793
17200.00000	94.25164	-456.19670	94.25164
17250.00000	94.32815	-458.31929	94.32815
17300.00000	94.60931	-460.03457	94.60931
17350.00000	94.68789	-461.96461	94.68789
17400.00000	94.86297	-464.00423	94.86297
17450.00000	94.99811	-466.14502	94.99811
17500.00000	95.23654	-467.50907	95.23654
17550.00000	95.40620	-469.43042	95.40620
17600.00000	95.68509	-470.86476	95.68509
17650.00000	95.84219	-473.46745	95.84219
17700.00000	95.96725	-475.57573	95.96725
17750.00000	96.33705	-476.73811	96.33705
17800.00000	96.44920	-479.07526	96.44920
17850.00000	96.69692	-480.25466	96.69692
17900.00000	96.84702	-482.16425	96.84702
17950.00000	97.08862	-484.67316	97.08862
18000.00000	97.37975	-487.15006	97.37975
18050.00000	97.68351	-488.56614	97.68351
18100.00000	97.86128	-491.64701	97.86128
18150.00000	98.08962	-493.12540	98.08962
18200.00000	98.25793	-495.70993	98.25793
18250.00000	98.53543	-497.61661	98.53543
18300.00000	98.86171	-499.91295	98.86171
18350.00000	99.07440	-502.15770	99.07440
18400.00000	99.26307	-504.93859	99.26307
18450.00000	99.48331	-508.47188	99.48331
18500.00000	99.69062	-511.03742	99.69062
18550.00000	99.94781	-513.15339	99.94781
18600.00000	100.29806	-516.44884	100.29806
18650.00000	100.37155	-518.88116	100.37155
18700.00000	100.65145	-522.42871	100.65145
18750.00000	100.91529	-525.46912	100.91529
18800.00000	101.28635	-527.91152	101.28635
18850.00000	101.36101	-531.37681	101.36101
18900.00000	101.51791	-534.83451	101.51791
18950.00000	101.79382	-538.91935	101.79382
19000.00000	101.81284	-541.79531	101.81284
19050.00000	102.09951	-545.86853	102.09951
19100.00000	102.17522	-549.41131	102.17522
19150.00000	102.41427	-552.92235	102.41427
19200.00000	102.49567	-556.33641	102.49567
19250.00000	102.56775	-561.17518	102.56775
19300.00000	102.55661	-564.30311	102.55661
19350.00000	102.62916	-568.00567	102.62916
19400.00000	102.64156	-571.66485	102.64156
19450.00000	102.76117	-574.65188	102.76117
19500.00000	102.66456	-579.27920	102.66456
19550.00000	102.69422	-582.58149	102.69422
19600.00000	102.73780	-586.51061	102.73780
19650.00000	102.65430	-589.59294	102.65430
19700.00000	102.55721	-593.01502	102.55721
19750.00000	102.47625	-595.93543	102.47625
19800.00000	102.53425	-600.23908	102.53425
19850.00000	102.50588	-603.08840	102.50588
19900.00000	102.38290	-607.15120	102.38290
19950.00000	102.33273	-610.19680	102.33273
20000.00000	102.23277	-613.42191	102.23277
20050.00000	102.17784	-616.70665	102.17784
20100.00000	101.99215	-619.90803	101.99215
20150.00000	101.97888	-622.04499	101.97888
20200.00000	101.84099	-625.96813	101.84099
20250.00000	101.66651	-628.67733	101.66651
20300.00000	101.47332	-631.75628	101.47332
20350.00000	101.41785	-634.79529	101.41785
20400.00000	101.22568	-636.80044	101.22568
20450.00000	100.97496	-639.49139	100.97496
20500.00000	100.87462	-642.39684	100.87462
20550.00000	100.47251	-643.93584	100.47251
20600.00000	100.38903	-645.99065	100.38903
20650.00000	100.22207	-648.01122	100.22207
20700.00000	99.99146	-649.65185	99.99146
20750.00000	99.87241	-651.12195	99.87241
20800.00000	99.66033	-652.11643	99.66033
20850.00000	99.60226	-653.52647	99.60226
20900.00000	99.44247	-654.32692	99.44247
20950.00000	99.33420	-654.68169	99.33420
21000.00000	99.29701	-655.24031	99.29701
21050.00000	99.43928	-655.51182	99.43928
21100.00000	99.46956	-656.04255	99.46956
21150.00000	99.64400	-656.81632	99.64400
21200.00000	99.81345	-657.39990	99.81345
21250.00000	100.00489	-659.54621	100.00489
21300.00000	100.27227	-660.45969	100.27227
21350.00000	100.47817	-661.94682	100.47817
21400.00000	100.67041	-664.24327	100.67041
21450.00000	100.91109	-666.55846	100.91109
21500.00000	101.10296	-669.34109	101.10296
21550.00000	101.19735	-671.75530	101.19735
21600.00000	101.42530	-674.49344	101.42530
21650.00000	101.50235	-677.61999	101.50235
21700.00000	101.59717	-680.22682	101.59717
21750.00000	101.68793	-683.09128	101.68793
21800.00000	101.75945	-686.01289	101.75945
21850.00000	101.72384	-688.83495	101.72384
21900.00000	101.78497	-691.73761	101.78497
21950.00000	101.76010	-694.11253	101.76010
22000.00000	101.86010	-697.00200	101.86010
22050.00000	101.81185	-699.19537	101.81185
22100.00000	101.75868	-701.86681	101.75868
22150.00000	101.73634	-704.04798	101.73634
22200.00000	101.80286	-706.82710	101.80286
22250.00000	101.72572	-708.52415	101.72572
22300.00000	101.58415	-710.80123	101.58415
22350.00000	101.66452	-713.50395	101.66452
22400.00000	101.64956	-715.65361	101.64956
22450.00000	101.56076	-717.69444	101.56076
22500.00000	101.44951	-718.65222	101.44951
22550.00000	101.44687	-720.80317	101.44687
22600.00000	101.40072	-723.52654	101.40072
22650.00000	101.35571	-725.35152	101.35571
22700.00000	101.37364	-727.01611	101.37364
22750.00000	101.33586	-727.04734	101.33586
22800.00000	101.38217	-730.59949	101.38217
22850.00000	101.41449	-732.99936	101.41449
22900.00000	101.43614	-733.04715	101.43614
22950.00000	101.52978	-734.84160	101.52978
23000.00000	101.52337	-735.58600	101.52337
23050.00000	101.46469	-738.64675	101.46469
