---ACOUSTIC CALIBRATION---
Filename: C:\Data\AZH DATA\AZH62\RightPrimary.calib
Date: 8/27/2019 3:45:39 PM
Format: 4
Probe Tube Correction File: C:\Data\Probe Tube Calibrations\50_ProbeTube.calib
Experiment VIs: 850
EPL_CFTS.exe V12.0.1 (2012)
DAQmx V9.6

Attenuation (dB): 40.000000
Min Freq (Hz): 50.000000
Max Freq (Hz): 49950.000000
Freq Step (Hz): 50.000000
Sample Rate (Hz): 100000.000000
[Smoothing]
Method=None
MA.Iterations=0
MA.Length=0
Loess.Length=0
Loess.Type=Linear
Loess.Robust=FALSE


Freq(Hz)	Mag(dB)	Phase(deg)	Unsmoothed(dB)

50.00000	106.45036	534.46223	106.45036
100.00000	77.78589	353.05219	77.78589
150.00000	76.84569	495.94245	76.84569
200.00000	76.04597	472.57352	76.04597
250.00000	74.70389	366.43293	74.70389
300.00000	87.12963	466.93170	87.12963
350.00000	85.99696	396.19759	85.99696
400.00000	82.82310	362.95625	82.82310
450.00000	85.72361	371.77398	85.72361
500.00000	86.32405	370.13984	86.32405
550.00000	90.69319	369.48873	90.69319
600.00000	94.22234	356.92337	94.22234
650.00000	96.79076	346.24116	96.79076
700.00000	99.06357	331.04514	99.06357
750.00000	100.81775	313.88778	100.81775
800.00000	101.95588	292.22270	101.95588
850.00000	101.38664	276.15315	101.38664
900.00000	100.10660	257.12424	100.10660
950.00000	98.22204	255.16384	98.22204
1000.00000	96.67071	254.18666	96.67071
1050.00000	94.77997	269.10208	94.77997
1100.00000	96.14578	291.56199	96.14578
1150.00000	99.08468	297.60969	99.08468
1200.00000	101.98234	296.46918	101.98234
1250.00000	103.70113	288.53159	103.70113
1300.00000	105.36001	282.31004	105.36001
1350.00000	106.69445	272.64112	106.69445
1400.00000	107.59213	265.90580	107.59213
1450.00000	108.55975	259.48597	108.55975
1500.00000	109.57542	253.43034	109.57542
1550.00000	110.43298	244.61665	110.43298
1600.00000	111.90393	235.18022	111.90393
1650.00000	112.94033	218.35235	112.94033
1700.00000	111.69289	208.23576	111.69289
1750.00000	111.48046	202.34972	111.48046
1800.00000	111.20970	197.92225	111.20970
1850.00000	111.30861	196.81824	111.30861
1900.00000	112.42824	193.12895	112.42824
1950.00000	113.16838	180.28832	113.16838
2000.00000	112.28079	168.12858	112.28079
2050.00000	110.96460	172.09877	110.96460
2100.00000	112.72926	172.53977	112.72926
2150.00000	113.45144	161.34562	113.45144
2200.00000	113.40068	151.30629	113.40068
2250.00000	112.81685	144.42213	112.81685
2300.00000	112.91584	138.72149	112.91584
2350.00000	112.67360	132.45097	112.67360
2400.00000	112.43106	127.00430	112.43106
2450.00000	112.16126	120.35514	112.16126
2500.00000	111.79091	115.29827	111.79091
2550.00000	111.33053	109.67818	111.33053
2600.00000	110.83297	105.60896	110.83297
2650.00000	110.35811	101.61032	110.35811
2700.00000	109.86236	98.10492	109.86236
2750.00000	109.31127	94.46455	109.31127
2800.00000	108.70243	91.74099	108.70243
2850.00000	108.09013	89.60120	108.09013
2900.00000	107.47433	87.63802	107.47433
2950.00000	106.84325	86.57859	106.84325
3000.00000	106.24939	85.70097	106.24939
3050.00000	105.44880	84.64099	105.44880
3100.00000	104.66941	84.88722	104.66941
3150.00000	103.49253	85.31391	103.49253
3200.00000	102.31254	91.85369	102.31254
3250.00000	101.35677	100.86824	101.35677
3300.00000	100.75491	113.49239	100.75491
3350.00000	101.00318	129.76430	101.00318
3400.00000	102.69665	146.81125	102.69665
3450.00000	105.30950	155.15954	105.30950
3500.00000	107.93593	156.50853	107.93593
3550.00000	110.01523	153.24860	110.01523
3600.00000	111.80781	149.46671	111.80781
3650.00000	113.26350	144.19528	113.26350
3700.00000	114.55918	139.17150	114.55918
3750.00000	115.85194	133.88707	115.85194
3800.00000	117.03943	127.40056	117.03943
3850.00000	118.07398	120.68544	118.07398
3900.00000	119.03056	114.14889	119.03056
3950.00000	119.96897	107.02461	119.96897
4000.00000	120.82193	99.65946	120.82193
4050.00000	121.62555	92.37366	121.62555
4100.00000	122.45747	84.86416	122.45747
4150.00000	123.48159	76.50894	123.48159
4200.00000	124.21660	66.50468	124.21660
4250.00000	124.90593	55.36438	124.90593
4300.00000	125.34607	43.23921	125.34607
4350.00000	125.47123	30.75392	125.47123
4400.00000	125.32681	19.14199	125.32681
4450.00000	125.01814	 8.50373	125.01814
4500.00000	124.62025	-1.13526	124.62025
4550.00000	124.18575	-10.16168	124.18575
4600.00000	123.70231	-18.46266	123.70231
4650.00000	123.26867	-26.35618	123.26867
4700.00000	122.79813	-34.64891	122.79813
4750.00000	122.20599	-43.23096	122.20599
4800.00000	121.41452	-51.94474	121.41452
4850.00000	120.33572	-59.87529	120.33572
4900.00000	119.02113	-65.85807	119.02113
4950.00000	117.62609	-69.18956	117.62609
5000.00000	116.29451	-70.12517	116.29451
5050.00000	115.23322	-69.83180	115.23322
5100.00000	114.00771	-66.45283	114.00771
5150.00000	113.90649	-60.43241	113.90649
5200.00000	113.18753	-57.02741	113.18753
5250.00000	114.25840	-43.66563	114.25840
5300.00000	116.80786	-49.81650	116.80786
5350.00000	117.17103	-63.02844	117.17103
5400.00000	116.64568	-71.15326	116.64568
5450.00000	116.11625	-75.71328	116.11625
5500.00000	115.68490	-79.05016	115.68490
5550.00000	115.36500	-81.57387	115.36500
5600.00000	115.10808	-84.09365	115.10808
5650.00000	114.90574	-86.37899	114.90574
5700.00000	114.71354	-88.81085	114.71354
5750.00000	114.56715	-91.09643	114.56715
5800.00000	114.41260	-93.48893	114.41260
5850.00000	114.28244	-95.91796	114.28244
5900.00000	114.16414	-98.25424	114.16414
5950.00000	114.06234	-100.51590	114.06234
6000.00000	113.96645	-102.69193	113.96645
6050.00000	113.87262	-104.99981	113.87262
6100.00000	113.80689	-107.17076	113.80689
6150.00000	113.76944	-109.50992	113.76944
6200.00000	113.71718	-111.94635	113.71718
6250.00000	113.69523	-114.51568	113.69523
6300.00000	113.66131	-117.27214	113.66131
6350.00000	113.59758	-120.06150	113.59758
6400.00000	113.52572	-122.67238	113.52572
6450.00000	113.47755	-125.42061	113.47755
6500.00000	113.38773	-128.08737	113.38773
6550.00000	113.31211	-130.77304	113.31211
6600.00000	113.24899	-133.26453	113.24899
6650.00000	113.18560	-135.81539	113.18560
6700.00000	113.15182	-138.45950	113.15182
6750.00000	113.10485	-140.95176	113.10485
6800.00000	113.06969	-143.43252	113.06969
6850.00000	113.03165	-146.02772	113.03165
6900.00000	113.02608	-148.50980	113.02608
6950.00000	113.00413	-151.08591	113.00413
7000.00000	113.00960	-153.63023	113.00960
7050.00000	113.00676	-156.39352	113.00676
7100.00000	113.02566	-159.26923	113.02566
7150.00000	113.02778	-162.00697	113.02778
7200.00000	113.03137	-164.99092	113.03137
7250.00000	113.01206	-168.11739	113.01206
7300.00000	113.03130	-171.26240	113.03130
7350.00000	113.01311	-174.25967	113.01311
7400.00000	113.01323	-177.63771	113.01323
7450.00000	112.98740	-180.95763	112.98740
7500.00000	112.96010	-184.40432	112.96010
7550.00000	112.95033	-187.66533	112.95033
7600.00000	112.89252	-191.08143	112.89252
7650.00000	112.84627	-194.49920	112.84627
7700.00000	112.82949	-197.86233	112.82949
7750.00000	112.73791	-201.36249	112.73791
7800.00000	112.68962	-204.84666	112.68962
7850.00000	112.61551	-208.35017	112.61551
7900.00000	112.56731	-211.73651	112.56731
7950.00000	112.49245	-215.34708	112.49245
8000.00000	112.42983	-219.01362	112.42983
8050.00000	112.34584	-223.07744	112.34584
8100.00000	112.26424	-226.42707	112.26424
8150.00000	112.09003	-230.07738	112.09003
8200.00000	111.97783	-233.55664	111.97783
8250.00000	111.81591	-237.60390	111.81591
8300.00000	111.66651	-241.49101	111.66651
8350.00000	111.42673	-245.23386	111.42673
8400.00000	111.21346	-249.40894	111.21346
8450.00000	110.90751	-253.39700	110.90751
8500.00000	110.64026	-257.49412	110.64026
8550.00000	110.37679	-261.35422	110.37679
8600.00000	110.06671	-265.51948	110.06671
8650.00000	109.73546	-269.33003	109.73546
8700.00000	109.42532	-273.34893	109.42532
8750.00000	109.02779	-275.80623	109.02779
8800.00000	108.69216	-279.17238	108.69216
8850.00000	108.25751	-282.10193	108.25751
8900.00000	107.87315	-284.39758	107.87315
8950.00000	107.44996	-287.17878	107.44996
9000.00000	106.93644	-289.58901	106.93644
9050.00000	106.51133	-292.49751	106.51133
9100.00000	106.07765	-294.80826	106.07765
9150.00000	105.68320	-297.38156	105.68320
9200.00000	105.36268	-299.86954	105.36268
9250.00000	105.00899	-302.15961	105.00899
9300.00000	104.74872	-304.22599	104.74872
9350.00000	104.57932	-306.13052	104.57932
9400.00000	104.26991	-307.17583	104.26991
9450.00000	104.05021	-308.12663	104.05021
9500.00000	103.81348	-307.97108	103.81348
9550.00000	103.66571	-308.00650	103.66571
9600.00000	103.53490	-309.34832	103.53490
9650.00000	103.26710	-310.95582	103.26710
9700.00000	102.98155	-311.97527	102.98155
9750.00000	102.76184	-314.38190	102.76184
9800.00000	102.49914	-315.92410	102.49914
9850.00000	102.35892	-317.44381	102.35892
9900.00000	102.10717	-319.42251	102.10717
9950.00000	102.01501	-320.72026	102.01501
10000.00000	101.93349	-322.55126	101.93349
10050.00000	101.79219	-323.56803	101.79219
10100.00000	101.63946	-324.62355	101.63946
10150.00000	101.36984	-326.20974	101.36984
10200.00000	101.16159	-327.52104	101.16159
10250.00000	100.87534	-329.47138	100.87534
10300.00000	100.76347	-331.52301	100.76347
10350.00000	100.54382	-333.56199	100.54382
10400.00000	100.30970	-336.11346	100.30970
10450.00000	100.30191	-338.60705	100.30191
10500.00000	100.29736	-340.73193	100.29736
10550.00000	100.27043	-342.71138	100.27043
10600.00000	100.19300	-344.27517	100.19300
10650.00000	100.07284	-345.32568	100.07284
10700.00000	99.96557	-347.65009	99.96557
10750.00000	99.83934	-349.44122	99.83934
10800.00000	99.61747	-351.20235	99.61747
10850.00000	99.43185	-354.20549	99.43185
10900.00000	99.27215	-356.32203	99.27215
10950.00000	99.11889	-358.35110	99.11889
11000.00000	98.99006	-360.60412	98.99006
11050.00000	98.72435	-362.82629	98.72435
11100.00000	98.55133	-365.10216	98.55133
11150.00000	98.24915	-366.80608	98.24915
11200.00000	98.07588	-368.36079	98.07588
11250.00000	97.76936	-370.44634	97.76936
11300.00000	97.43155	-372.46851	97.43155
11350.00000	97.16177	-374.02764	97.16177
11400.00000	96.81482	-375.80158	96.81482
11450.00000	96.58978	-378.22726	96.58978
11500.00000	96.49190	-379.21391	96.49190
11550.00000	96.16530	-380.44112	96.16530
11600.00000	96.05946	-382.52325	96.05946
11650.00000	95.83529	-382.73980	95.83529
11700.00000	95.71328	-383.82375	95.71328
11750.00000	95.56190	-385.16159	95.56190
11800.00000	95.40619	-386.80993	95.40619
11850.00000	95.26422	-387.16122	95.26422
11900.00000	94.92583	-389.03499	94.92583
11950.00000	94.80922	-390.07688	94.80922
12000.00000	94.60874	-391.24009	94.60874
12050.00000	94.34925	-392.44035	94.34925
12100.00000	94.25774	-394.69685	94.25774
12150.00000	94.11328	-396.21141	94.11328
12200.00000	94.07969	-397.68881	94.07969
12250.00000	93.97890	-398.74685	93.97890
12300.00000	94.93744	-400.48702	94.93744
12350.00000	93.62697	-401.84294	93.62697
12400.00000	93.43405	-402.71918	93.43405
12450.00000	93.25273	-403.99645	93.25273
12500.00000	93.03953	-406.35701	93.03953
12550.00000	92.93239	-408.13525	92.93239
12600.00000	92.65730	-410.15766	92.65730
12650.00000	92.66609	-412.06805	92.66609
12700.00000	92.38556	-413.20904	92.38556
12750.00000	92.19924	-415.02816	92.19924
12800.00000	91.91391	-416.15295	91.91391
12850.00000	91.40084	-417.50016	91.40084
12900.00000	91.16251	-419.42964	91.16251
12950.00000	90.95550	-421.14242	90.95550
13000.00000	90.61575	-423.20390	90.61575
13050.00000	90.50858	-423.80614	90.50858
13100.00000	90.18542	-425.00215	90.18542
13150.00000	90.02380	-426.93935	90.02380
13200.00000	89.70024	-426.05181	89.70024
13250.00000	89.34600	-426.87759	89.34600
13300.00000	88.93140	-425.82874	88.93140
13350.00000	88.61297	-427.43591	88.61297
13400.00000	88.52398	-428.74034	88.52398
13450.00000	88.03756	-427.81942	88.03756
13500.00000	88.00058	-427.11655	88.00058
13550.00000	87.57383	-427.87047	87.57383
13600.00000	87.35703	-426.29148	87.35703
13650.00000	87.00057	-426.84798	87.00057
13700.00000	86.55791	-427.68710	86.55791
13750.00000	86.32958	-427.24496	86.32958
13800.00000	86.25428	-428.63251	86.25428
13850.00000	86.24317	-428.82753	86.24317
13900.00000	85.87989	-426.90776	85.87989
13950.00000	85.79424	-425.70007	85.79424
14000.00000	85.61539	-423.99664	85.61539
14050.00000	85.36253	-423.78950	85.36253
14100.00000	85.23977	-424.76193	85.23977
14150.00000	85.33304	-424.01123	85.33304
14200.00000	85.39450	-423.84395	85.39450
14250.00000	85.77913	-420.51225	85.77913
14300.00000	85.52256	-420.17198	85.52256
14350.00000	85.35610	-415.92942	85.35610
14400.00000	84.96422	-416.95996	84.96422
14450.00000	84.85078	-415.24884	84.85078
14500.00000	84.87947	-415.73881	84.87947
14550.00000	84.96233	-415.39258	84.96233
14600.00000	84.94316	-415.35214	84.94316
14650.00000	85.21512	-413.62475	85.21512
14700.00000	85.33982	-415.19897	85.33982
14750.00000	85.28394	-412.78223	85.28394
14800.00000	85.15935	-411.67312	85.15935
14850.00000	85.39788	-410.93282	85.39788
14900.00000	85.69048	-411.19389	85.69048
14950.00000	85.94278	-409.92568	85.94278
15000.00000	86.30642	-410.13895	86.30642
15050.00000	86.14047	-406.98418	86.14047
15100.00000	85.97424	-405.33640	85.97424
15150.00000	86.16034	-406.97013	86.16034
15200.00000	86.39961	-405.90582	86.39961
15250.00000	86.46254	-407.43423	86.46254
15300.00000	87.07906	-407.20064	87.07906
15350.00000	87.16175	-405.71398	87.16175
15400.00000	87.14745	-403.38483	87.14745
15450.00000	87.29125	-402.95672	87.29125
15500.00000	87.46676	-401.89066	87.46676
15550.00000	87.74908	-403.24198	87.74908
15600.00000	88.05831	-403.51495	88.05831
15650.00000	88.65759	-400.50496	88.65759
15700.00000	88.81317	-401.41461	88.81317
15750.00000	89.27722	-400.26792	89.27722
15800.00000	89.56113	-398.10907	89.56113
15850.00000	89.88026	-398.99613	89.88026
15900.00000	90.11055	-399.34128	90.11055
15950.00000	90.72798	-399.65903	90.72798
16000.00000	91.20562	-399.72436	91.20562
16050.00000	91.72763	-400.20970	91.72763
16100.00000	91.98209	-399.76911	91.98209
16150.00000	92.33510	-400.20206	92.33510
16200.00000	92.74545	-401.98338	92.74545
16250.00000	93.33743	-403.09726	93.33743
16300.00000	94.07863	-404.90553	94.07863
16350.00000	94.55293	-405.70737	94.55293
16400.00000	95.03370	-405.84705	95.03370
16450.00000	95.39627	-407.23783	95.39627
16500.00000	95.80559	-409.79036	95.80559
16550.00000	96.33129	-412.22543	96.33129
16600.00000	96.81114	-414.57500	96.81114
16650.00000	97.34145	-417.05900	97.34145
16700.00000	97.77458	-418.64067	97.77458
16750.00000	98.08653	-421.47952	98.08653
16800.00000	98.53648	-424.50713	98.53648
16850.00000	98.99699	-427.31835	98.99699
16900.00000	99.38464	-430.74316	99.38464
16950.00000	99.82145	-433.64719	99.82145
17000.00000	100.06096	-436.59644	100.06096
17050.00000	100.41180	-439.14307	100.41180
17100.00000	100.57778	-441.85082	100.57778
17150.00000	100.98599	-445.68720	100.98599
17200.00000	101.28096	-448.99130	101.28096
17250.00000	101.48955	-452.85844	101.48955
17300.00000	101.79178	-455.73401	101.79178
17350.00000	101.88447	-458.68258	101.88447
17400.00000	102.14489	-462.20612	102.14489
17450.00000	102.27216	-465.93056	102.27216
17500.00000	102.52295	-469.29450	102.52295
17550.00000	102.69909	-472.43796	102.69909
17600.00000	102.92552	-474.97740	102.92552
17650.00000	103.04257	-478.89460	103.04257
17700.00000	103.13820	-482.42839	103.13820
17750.00000	103.39099	-485.04412	103.39099
17800.00000	103.41251	-488.73691	103.41251
17850.00000	103.59145	-491.08467	103.59145
17900.00000	103.71077	-494.09235	103.71077
17950.00000	103.86259	-497.60901	103.86259
18000.00000	103.96575	-501.19390	103.96575
18050.00000	104.22376	-503.93495	104.22376
18100.00000	104.31060	-507.48012	104.31060
18150.00000	104.37558	-510.00546	104.37558
18200.00000	104.45503	-513.61407	104.45503
18250.00000	104.58344	-516.09013	104.58344
18300.00000	104.75169	-519.29893	104.75169
18350.00000	104.86394	-522.57767	104.86394
18400.00000	104.93140	-526.05208	104.93140
18450.00000	104.96775	-530.32984	104.96775
18500.00000	105.05708	-533.51496	105.05708
18550.00000	105.09725	-536.31845	105.09725
18600.00000	105.25644	-540.20173	105.25644
18650.00000	105.16337	-543.22781	105.16337
18700.00000	105.16141	-546.72437	105.16141
18750.00000	105.23079	-549.74766	105.23079
18800.00000	105.36342	-552.50943	105.36342
18850.00000	105.23474	-555.98964	105.23474
18900.00000	105.22020	-558.77204	105.22020
18950.00000	105.26832	-562.07481	105.26832
19000.00000	105.11113	-564.46349	105.11113
19050.00000	105.25149	-567.39470	105.25149
19100.00000	105.24636	-570.06507	105.24636
19150.00000	105.37858	-572.57473	105.37858
19200.00000	105.40806	-575.12552	105.40806
19250.00000	105.43909	-578.95341	105.43909
19300.00000	105.41494	-581.03448	105.41494
19350.00000	105.46985	-583.90358	105.46985
19400.00000	105.50576	-586.71868	105.50576
19450.00000	105.65623	-589.18096	105.65623
19500.00000	105.61710	-592.93742	105.61710
19550.00000	105.69576	-595.86085	105.69576
19600.00000	105.80317	-599.40399	105.80317
19650.00000	105.78520	-602.11888	105.78520
19700.00000	105.73397	-605.52278	105.73397
19750.00000	105.75708	-608.11734	105.75708
19800.00000	105.85899	-612.15045	105.85899
19850.00000	105.88548	-615.16640	105.88548
19900.00000	105.82189	-619.31975	105.82189
19950.00000	105.78714	-622.45920	105.78714
20000.00000	105.78249	-625.83074	105.78249
20050.00000	105.73503	-629.16566	105.73503
20100.00000	105.59520	-632.57429	105.59520
20150.00000	105.59227	-635.09700	105.59227
20200.00000	105.46714	-639.07134	105.46714
20250.00000	105.33416	-642.14567	105.33416
20300.00000	105.13653	-645.36866	105.13653
20350.00000	105.09211	-648.65521	105.09211
20400.00000	104.87989	-650.87013	104.87989
20450.00000	104.63974	-653.97218	104.63974
20500.00000	104.54634	-656.95003	104.54634
20550.00000	104.14619	-658.81115	104.14619
20600.00000	104.05478	-661.09967	104.05478
20650.00000	103.87580	-663.28683	103.87580
20700.00000	103.64497	-665.25181	103.64497
20750.00000	103.51739	-667.09785	103.51739
20800.00000	103.29468	-668.44864	103.29468
20850.00000	103.19958	-670.06810	103.19958
20900.00000	103.00296	-671.45089	103.00296
20950.00000	102.87252	-672.09721	102.87252
21000.00000	102.79459	-673.01492	102.79459
21050.00000	102.88246	-673.65729	102.88246
21100.00000	102.83637	-674.36863	102.83637
21150.00000	102.94001	-675.64680	102.94001
21200.00000	103.04990	-676.35650	103.04990
21250.00000	103.13953	-678.82048	103.13953
21300.00000	103.32427	-679.80087	103.32427
21350.00000	103.42731	-681.45951	103.42731
21400.00000	103.54491	-683.71045	103.54491
21450.00000	103.67354	-685.91810	103.67354
21500.00000	103.80300	-688.63591	103.80300
21550.00000	103.80838	-690.75227	103.80838
21600.00000	103.94871	-693.46328	103.94871
21650.00000	103.96540	-696.40459	103.96540
21700.00000	103.96562	-698.80986	103.96562
21750.00000	103.99649	-701.51827	103.99649
21800.00000	103.99811	-704.16307	103.99811
21850.00000	103.91503	-706.37384	103.91503
21900.00000	103.90552	-709.11861	103.90552
21950.00000	103.84343	-711.30181	103.84343
22000.00000	103.85211	-713.55853	103.85211
22050.00000	103.81026	-715.43209	103.81026
22100.00000	103.73060	-717.78072	103.73060
22150.00000	103.66048	-719.78025	103.66048
22200.00000	103.69243	-721.77765	103.69243
22250.00000	103.60604	-723.34126	103.60604
22300.00000	103.49089	-725.79856	103.49089
22350.00000	103.57761	-727.62710	103.57761
22400.00000	103.57418	-729.88226	103.57418
22450.00000	103.50408	-731.50750	103.50408
22500.00000	103.42140	-732.77073	103.42140
22550.00000	103.40802	-734.66260	103.40802
22600.00000	103.38882	-737.34510	103.38882
22650.00000	103.36096	-739.14585	103.36096
22700.00000	103.34580	-740.91569	103.34580
22750.00000	103.35163	-740.72845	103.35163
22800.00000	103.37580	-744.80272	103.37580
