---ACOUSTIC CALIBRATION---
Filename: C:\Data\AZH DATA\AZH61\RightSecondary.calib
Date: 8/27/2019 3:33:09 PM
Format: 4
Probe Tube Correction File: C:\Data\Probe Tube Calibrations\50_ProbeTube.calib
Experiment VIs: 850
EPL_CFTS.exe V12.0.1 (2012)
DAQmx V9.6

Attenuation (dB): 40.000000
Min Freq (Hz): 50.000000
Max Freq (Hz): 49950.000000
Freq Step (Hz): 50.000000
Sample Rate (Hz): 100000.000000
[Smoothing]
Method=None
MA.Iterations=0
MA.Length=0
Loess.Length=0
Loess.Type=Linear
Loess.Robust=FALSE


Freq(Hz)	Mag(dB)	Phase(deg)	Unsmoothed(dB)

50.00000	87.41836	444.15148	87.41836
100.00000	73.15220	456.90700	73.15220
150.00000	69.97711	475.26897	69.97711
200.00000	73.00056	408.32211	73.00056
250.00000	82.82596	401.59504	82.82596
300.00000	81.65219	329.41136	81.65219
350.00000	81.07379	330.05918	81.07379
400.00000	84.92689	306.05370	84.92689
450.00000	84.76336	305.48930	84.76336
500.00000	87.62893	307.21334	87.62893
550.00000	89.24579	311.09252	89.24579
600.00000	91.77182	295.09733	91.77182
650.00000	92.54224	300.85281	92.54224
700.00000	94.63047	288.14758	94.63047
750.00000	96.06774	291.83881	96.06774
800.00000	99.16038	279.37576	99.16038
850.00000	100.82856	273.04292	100.82856
900.00000	102.46512	254.36531	102.46512
950.00000	103.54945	238.55532	103.54945
1000.00000	103.44259	221.20386	103.44259
1050.00000	102.82876	211.81918	102.82876
1100.00000	102.94844	199.74643	102.94844
1150.00000	101.92390	188.61184	101.92390
1200.00000	101.22772	186.76298	101.22772
1250.00000	101.30487	176.35288	101.30487
1300.00000	100.12318	170.59632	100.12318
1350.00000	99.44941	166.06044	99.44941
1400.00000	98.18788	165.91204	98.18788
1450.00000	98.80960	167.25592	98.80960
1500.00000	98.47753	167.19943	98.47753
1550.00000	98.77815	163.80726	98.77815
1600.00000	99.27496	159.09595	99.27496
1650.00000	100.31526	152.32339	100.31526
1700.00000	98.66886	145.41948	98.66886
1750.00000	98.62565	145.95001	98.62565
1800.00000	98.55299	142.00215	98.55299
1850.00000	97.95331	146.85687	97.95331
1900.00000	99.18816	146.84874	99.18816
1950.00000	99.73499	139.00493	99.73499
2000.00000	99.74634	131.34215	99.74634
2050.00000	98.44966	126.51571	98.44966
2100.00000	98.59839	125.72998	98.59839
2150.00000	98.17479	120.51630	98.17479
2200.00000	97.62578	119.28808	97.62578
2250.00000	96.73508	115.14122	96.73508
2300.00000	96.68763	118.13130	96.68763
2350.00000	96.29211	116.77717	96.29211
2400.00000	95.96275	118.95794	95.96275
2450.00000	96.05293	115.75745	96.05293
2500.00000	95.45290	118.10470	95.45290
2550.00000	95.11233	118.69809	95.11233
2600.00000	94.78758	125.74162	94.78758
2650.00000	95.83457	133.55300	95.83457
2700.00000	97.57831	135.82579	97.57831
2750.00000	99.23333	129.23586	99.23333
2800.00000	99.95061	119.11716	99.95061
2850.00000	99.77151	110.87327	99.77151
2900.00000	99.44934	104.38496	99.44934
2950.00000	99.04247	100.43669	99.04247
3000.00000	98.56564	96.88052	98.56564
3050.00000	98.15913	94.13859	98.15913
3100.00000	97.98015	92.36905	97.98015
3150.00000	97.58804	87.63718	97.58804
3200.00000	96.94584	85.15466	96.94584
3250.00000	96.29165	84.25424	96.29165
3300.00000	95.39862	82.27032	95.39862
3350.00000	94.15046	84.23345	94.15046
3400.00000	93.24047	91.56086	93.24047
3450.00000	93.00985	100.43761	93.00985
3500.00000	93.40592	107.26201	93.40592
3550.00000	93.84989	110.92387	93.84989
3600.00000	94.18087	113.98628	94.18087
3650.00000	93.95475	117.28892	93.95475
3700.00000	93.79681	124.82971	93.79681
3750.00000	94.61908	136.50637	94.61908
3800.00000	96.30176	145.52534	96.30176
3850.00000	98.22216	149.11315	98.22216
3900.00000	100.10287	149.23228	100.10287
3950.00000	101.77788	146.48980	101.77788
4000.00000	103.02713	142.12322	103.02713
4050.00000	104.16293	137.86115	104.16293
4100.00000	105.01126	133.93575	105.01126
4150.00000	106.04390	130.75208	106.04390
4200.00000	106.73333	127.15878	106.73333
4250.00000	107.51451	124.67660	107.51451
4300.00000	108.38574	122.44598	108.38574
4350.00000	109.35903	120.17603	109.35903
4400.00000	110.46268	117.96596	110.46268
4450.00000	111.68055	114.86128	111.68055
4500.00000	113.03603	110.63925	113.03603
4550.00000	114.41689	104.93702	114.41689
4600.00000	115.77280	97.80598	115.77280
4650.00000	117.17181	89.37182	117.17181
4700.00000	118.47547	78.91407	118.47547
4750.00000	119.61332	66.54475	119.61332
4800.00000	120.45546	52.32538	120.45546
4850.00000	120.85957	37.02154	120.85957
4900.00000	120.78680	21.57335	120.78680
4950.00000	120.23840	 7.12790	120.23840
5000.00000	119.22023	-4.90141	119.22023
5050.00000	118.16442	-13.15814	118.16442
5100.00000	116.97319	-22.64358	116.97319
5150.00000	114.49835	-25.34806	114.49835
5200.00000	113.30461	-7.19364	113.30461
5250.00000	116.36171	-0.82700	116.36171
5300.00000	118.14833	-13.84760	118.14833
5350.00000	118.48414	-27.36002	118.48414
5400.00000	118.24588	-38.40311	118.24588
5450.00000	117.82643	-47.21883	117.82643
5500.00000	117.34817	-54.76647	117.34817
5550.00000	116.87518	-61.25304	116.87518
5600.00000	116.41147	-67.16099	116.41147
5650.00000	115.97112	-72.55169	115.97112
5700.00000	115.52614	-77.70802	115.52614
5750.00000	115.11722	-82.33836	115.11722
5800.00000	114.70037	-86.85663	114.70037
5850.00000	114.30932	-91.23646	114.30932
5900.00000	113.94301	-95.26979	113.94301
5950.00000	113.58519	-99.20466	113.58519
6000.00000	113.23315	-102.90018	113.23315
6050.00000	112.87773	-106.60287	112.87773
6100.00000	112.55089	-110.19890	112.55089
6150.00000	112.20116	-113.66715	112.20116
6200.00000	111.87068	-117.04937	111.87068
6250.00000	111.55266	-120.32678	111.55266
6300.00000	111.25111	-123.53267	111.25111
6350.00000	110.94133	-126.79453	110.94133
6400.00000	110.63709	-129.94032	110.63709
6450.00000	110.34728	-133.08964	110.34728
6500.00000	110.02204	-136.17761	110.02204
6550.00000	109.71977	-139.07653	109.71977
6600.00000	109.40314	-141.82813	109.40314
6650.00000	109.11274	-144.44021	109.11274
6700.00000	108.80999	-147.11204	108.80999
6750.00000	108.51935	-149.51304	108.51935
6800.00000	108.24213	-151.68221	108.24213
6850.00000	107.96072	-153.83911	107.96072
6900.00000	107.72380	-155.93981	107.72380
6950.00000	107.48044	-157.84983	107.48044
7000.00000	107.27417	-159.97556	107.27417
7050.00000	107.07356	-162.05184	107.07356
7100.00000	106.89923	-164.13154	106.89923
7150.00000	106.71356	-166.05617	106.71356
7200.00000	106.53332	-167.88503	106.53332
7250.00000	106.35960	-169.86614	106.35960
7300.00000	106.23975	-171.61989	106.23975
7350.00000	106.10151	-173.31822	106.10151
7400.00000	106.02537	-175.12794	106.02537
7450.00000	105.98755	-176.90705	105.98755
7500.00000	105.97251	-178.90357	105.97251
7550.00000	105.97689	-180.91647	105.97689
7600.00000	105.97932	-183.10337	105.97932
7650.00000	105.98456	-185.57645	105.98456
7700.00000	106.06085	-188.10860	106.06085
7750.00000	106.06700	-191.09929	106.06700
7800.00000	106.10397	-194.39119	106.10397
7850.00000	106.08951	-197.84254	106.08951
7900.00000	106.04641	-201.50713	106.04641
7950.00000	105.95233	-205.28249	105.95233
8000.00000	105.84166	-209.17527	105.84166
8050.00000	105.70153	-213.27810	105.70153
8100.00000	105.53300	-216.48259	105.53300
8150.00000	105.26902	-220.11949	105.26902
8200.00000	105.01884	-223.29823	105.01884
8250.00000	104.76049	-226.74845	104.76049
8300.00000	104.48798	-230.01895	104.48798
8350.00000	104.16370	-232.93346	104.16370
8400.00000	103.85363	-236.14460	103.85363
8450.00000	103.45343	-238.79098	103.45343
8500.00000	103.09562	-241.40727	103.09562
8550.00000	102.77817	-243.56231	102.77817
8600.00000	102.41378	-246.04947	102.41378
8650.00000	102.09754	-247.95715	102.09754
8700.00000	101.79732	-250.52976	101.79732
8750.00000	101.43369	-251.60958	101.43369
8800.00000	101.14972	-253.76694	101.14972
8850.00000	100.83760	-255.58273	100.83760
8900.00000	100.59354	-257.01777	100.59354
8950.00000	100.36450	-258.82019	100.36450
9000.00000	100.09610	-260.47288	100.09610
9050.00000	99.94185	-262.26114	99.94185
9100.00000	99.78841	-263.84052	99.78841
9150.00000	99.65257	-265.40328	99.65257
9200.00000	99.58070	-266.91036	99.58070
9250.00000	99.42391	-268.40988	99.42391
9300.00000	99.34789	-269.89500	99.34789
9350.00000	99.25770	-271.29427	99.25770
9400.00000	99.07826	-272.25477	99.07826
9450.00000	99.00535	-273.82204	99.00535
9500.00000	98.93718	-275.00868	98.93718
9550.00000	98.83499	-276.86985	98.83499
9600.00000	98.82273	-278.83842	98.82273
9650.00000	98.76693	-281.02353	98.76693
9700.00000	98.71814	-282.68221	98.71814
9750.00000	98.77865	-285.38574	98.77865
9800.00000	98.70091	-286.80211	98.70091
9850.00000	98.66513	-288.13421	98.66513
9900.00000	98.46486	-289.97088	98.46486
9950.00000	98.34341	-291.27192	98.34341
10000.00000	98.18329	-293.53335	98.18329
10050.00000	97.98829	-295.39273	97.98829
10100.00000	97.77350	-297.37577	97.77350
10150.00000	97.52341	-300.28255	97.52341
10200.00000	97.38722	-302.86561	97.38722
10250.00000	97.23581	-305.67696	97.23581
10300.00000	97.25374	-308.05681	97.25374
10350.00000	97.14332	-310.13296	97.14332
10400.00000	97.00987	-312.40228	97.00987
10450.00000	97.01680	-314.53999	97.01680
10500.00000	96.96249	-316.41437	96.96249
10550.00000	96.85386	-318.43569	96.85386
10600.00000	96.69751	-320.46481	96.69751
10650.00000	96.53465	-322.32068	96.53465
10700.00000	96.40238	-325.38978	96.40238
10750.00000	96.33950	-327.99313	96.33950
10800.00000	96.19460	-330.40791	96.19460
10850.00000	96.10438	-333.79024	96.10438
10900.00000	95.99981	-336.02170	95.99981
10950.00000	95.88590	-337.93884	95.88590
11000.00000	95.72151	-340.07351	95.72151
11050.00000	95.37069	-342.22982	95.37069
11100.00000	95.12853	-344.89402	95.12853
11150.00000	94.75680	-346.96561	94.75680
11200.00000	94.55936	-349.24386	94.55936
11250.00000	94.23908	-351.92386	94.23908
11300.00000	93.92704	-354.42002	93.92704
11350.00000	93.68074	-356.00379	93.68074
11400.00000	93.34537	-357.73262	93.34537
11450.00000	93.12521	-359.71405	93.12521
11500.00000	92.97396	-360.43284	92.97396
11550.00000	92.61604	-361.56760	92.61604
11600.00000	92.45474	-363.61135	92.45474
11650.00000	92.15300	-364.04489	92.15300
11700.00000	92.02018	-365.14884	92.02018
11750.00000	91.91549	-366.88806	91.91549
11800.00000	91.78680	-368.74229	91.78680
11850.00000	91.75091	-369.14204	91.75091
11900.00000	91.49289	-371.00532	91.49289
11950.00000	91.40663	-372.20933	91.40663
12000.00000	91.19501	-373.40778	91.19501
12050.00000	90.96188	-374.76140	90.96188
12100.00000	90.81754	-377.75474	90.81754
12150.00000	90.63009	-380.02329	90.63009
12200.00000	90.53858	-382.48869	90.53858
12250.00000	90.37959	-384.34383	90.37959
12300.00000	91.34935	-386.80568	91.34935
12350.00000	89.99689	-388.79802	89.99689
12400.00000	89.72178	-389.74049	89.72178
12450.00000	89.38235	-391.04424	89.38235
12500.00000	89.01344	-392.99089	89.01344
12550.00000	88.68080	-394.42351	88.68080
12600.00000	88.21614	-396.38606	88.21614
12650.00000	88.08463	-397.85720	88.08463
12700.00000	87.58545	-399.44438	87.58545
12750.00000	87.21683	-400.36246	87.21683
12800.00000	86.95909	-400.75997	86.95909
12850.00000	86.31115	-401.35258	86.31115
12900.00000	85.96856	-402.74333	85.96856
12950.00000	85.66106	-403.00277	85.66106
13000.00000	85.38266	-403.82666	85.38266
13050.00000	85.24077	-402.88098	85.24077
13100.00000	84.92788	-403.09552	84.92788
13150.00000	84.79604	-403.26520	84.79604
13200.00000	84.54155	-401.58559	84.54155
13250.00000	84.23478	-401.99937	84.23478
13300.00000	83.87190	-399.30346	83.87190
13350.00000	83.60461	-400.27611	83.60461
13400.00000	83.51082	-401.59500	83.51082
13450.00000	83.16247	-399.47244	83.16247
13500.00000	83.07509	-399.59660	83.07509
13550.00000	82.91625	-398.56872	82.91625
13600.00000	82.71049	-396.97791	82.71049
13650.00000	82.56917	-395.85615	82.56917
13700.00000	82.26051	-395.19130	82.26051
13750.00000	82.05873	-394.17678	82.05873
13800.00000	81.83960	-395.07532	81.83960
13850.00000	81.93924	-394.31287	81.93924
13900.00000	81.62903	-393.34289	81.62903
13950.00000	81.72442	-394.30633	81.72442
14000.00000	81.93876	-390.78032	81.93876
14050.00000	82.06097	-390.53458	82.06097
14100.00000	81.89891	-387.94708	81.89891
14150.00000	82.15113	-387.63339	82.15113
14200.00000	82.14330	-384.90094	82.14330
14250.00000	82.41596	-382.73321	82.41596
14300.00000	82.46389	-381.41460	82.46389
14350.00000	82.58251	-379.70004	82.58251
14400.00000	82.33148	-379.49547	82.33148
14450.00000	82.50230	-377.42349	82.50230
14500.00000	82.47852	-378.10840	82.47852
14550.00000	82.99831	-376.46317	82.99831
14600.00000	83.31889	-376.72889	83.31889
14650.00000	83.79428	-374.41541	83.79428
14700.00000	83.97600	-377.11295	83.97600
14750.00000	84.41977	-375.37057	84.41977
14800.00000	84.40475	-374.38475	84.40475
14850.00000	85.06249	-374.25430	85.06249
14900.00000	85.31243	-374.52811	85.31243
14950.00000	85.63620	-374.92757	85.63620
15000.00000	85.99770	-376.25496	85.99770
15050.00000	86.14576	-375.07350	86.14576
15100.00000	86.46429	-375.56448	86.46429
15150.00000	87.09864	-377.09166	87.09864
15200.00000	87.19575	-375.63657	87.19575
15250.00000	87.36989	-377.01660	87.36989
15300.00000	87.93347	-377.72301	87.93347
15350.00000	88.14930	-378.58674	88.14930
15400.00000	88.37142	-378.80785	88.37142
15450.00000	88.64043	-379.78536	88.64043
15500.00000	89.20248	-380.95222	89.20248
15550.00000	89.48369	-382.52476	89.48369
15600.00000	89.84612	-384.42959	89.84612
15650.00000	90.50127	-383.96198	90.50127
15700.00000	90.73152	-385.91709	90.73152
15750.00000	91.20458	-386.45153	91.20458
15800.00000	91.53941	-387.05922	91.53941
15850.00000	91.78443	-388.59089	91.78443
15900.00000	92.08033	-391.09722	92.08033
15950.00000	92.55029	-393.48711	92.55029
16000.00000	92.89271	-394.74055	92.89271
16050.00000	93.37216	-396.58730	93.37216
16100.00000	93.61767	-399.07589	93.61767
16150.00000	93.85422	-401.82118	93.85422
16200.00000	94.20962	-404.66937	94.20962
16250.00000	94.62505	-406.71778	94.62505
16300.00000	95.08313	-409.67714	95.08313
16350.00000	95.29424	-411.82109	95.29424
16400.00000	95.56597	-413.68471	95.56597
16450.00000	95.81171	-416.76069	95.81171
16500.00000	96.06534	-419.47230	96.06534
16550.00000	96.27585	-422.61175	96.27585
16600.00000	96.57594	-425.28977	96.57594
16650.00000	96.67097	-428.10023	96.67097
16700.00000	96.91099	-430.28153	96.91099
16750.00000	97.00449	-433.01230	97.00449
16800.00000	97.24142	-435.96283	97.24142
16850.00000	97.45162	-438.67118	97.45162
16900.00000	97.67258	-441.29387	97.67258
16950.00000	97.84895	-443.73157	97.84895
17000.00000	97.86695	-445.81437	97.86695
17050.00000	98.07520	-447.66638	98.07520
17100.00000	98.16415	-449.12409	98.16415
17150.00000	98.45230	-452.44072	98.45230
17200.00000	98.66488	-454.88817	98.66488
17250.00000	98.79196	-457.69294	98.79196
17300.00000	99.08730	-459.90481	99.08730
17350.00000	99.09547	-462.00572	99.09547
17400.00000	99.39348	-464.88001	99.39348
17450.00000	99.48404	-467.82074	99.48404
17500.00000	99.75129	-470.24604	99.75129
17550.00000	99.93546	-473.00722	99.93546
17600.00000	100.21516	-474.80838	100.21516
17650.00000	100.35269	-478.58708	100.35269
17700.00000	100.49507	-481.61895	100.49507
17750.00000	100.78909	-484.30655	100.78909
17800.00000	100.81349	-487.37130	100.81349
17850.00000	101.02658	-489.84740	101.02658
17900.00000	101.12271	-492.96468	101.12271
17950.00000	101.31624	-496.21920	101.31624
18000.00000	101.43688	-499.73030	101.43688
18050.00000	101.67844	-502.45182	101.67844
18100.00000	101.76910	-505.97210	101.76910
18150.00000	101.89429	-508.43229	101.89429
18200.00000	101.87580	-512.17855	101.87580
18250.00000	102.02313	-514.55295	102.02313
18300.00000	102.22019	-517.79980	102.22019
18350.00000	102.30174	-520.73945	102.30174
18400.00000	102.35398	-524.07306	102.35398
18450.00000	102.38392	-528.22080	102.38392
18500.00000	102.44940	-531.07688	102.44940
18550.00000	102.51769	-533.92706	102.51769
18600.00000	102.68011	-537.65494	102.68011
18650.00000	102.62750	-540.57805	102.62750
18700.00000	102.67039	-543.93642	102.67039
18750.00000	102.76920	-547.01189	102.76920
18800.00000	102.89921	-549.61744	102.89921
18850.00000	102.85476	-553.25780	102.85476
18900.00000	102.86676	-556.25919	102.86676
18950.00000	102.95554	-559.96122	102.95554
19000.00000	102.82331	-562.65312	102.82331
19050.00000	102.96627	-566.23434	102.96627
19100.00000	102.93254	-569.44376	102.93254
19150.00000	103.09589	-572.48169	103.09589
19200.00000	103.04845	-575.46412	103.04845
19250.00000	103.03162	-579.58281	103.03162
19300.00000	102.93566	-582.30743	102.93566
19350.00000	102.95511	-585.54420	102.95511
19400.00000	102.87608	-588.75325	102.87608
19450.00000	102.95249	-591.40689	102.95249
19500.00000	102.82959	-595.45415	102.82959
19550.00000	102.79060	-598.70568	102.79060
19600.00000	102.82136	-602.50889	102.82136
19650.00000	102.70406	-605.24140	102.70406
19700.00000	102.54654	-608.31108	102.54654
19750.00000	102.43757	-610.95363	102.43757
19800.00000	102.45279	-614.84072	102.45279
19850.00000	102.37647	-617.81395	102.37647
19900.00000	102.22939	-621.74217	102.22939
19950.00000	102.09522	-624.45553	102.09522
20000.00000	101.99554	-627.52032	101.99554
20050.00000	101.84294	-630.51990	101.84294
20100.00000	101.61812	-633.70765	101.61812
20150.00000	101.55213	-635.64791	101.55213
20200.00000	101.38197	-639.14500	101.38197
20250.00000	101.13981	-641.82639	101.13981
20300.00000	100.85996	-644.42816	100.85996
20350.00000	100.77553	-647.23846	100.77553
20400.00000	100.54586	-648.84950	100.54586
20450.00000	100.26016	-651.22056	100.26016
20500.00000	100.11733	-653.63063	100.11733
20550.00000	99.67739	-654.92759	99.67739
20600.00000	99.55163	-656.68157	99.55163
20650.00000	99.37544	-658.29248	99.37544
20700.00000	99.12328	-659.51693	99.12328
20750.00000	98.95693	-660.55985	98.95693
20800.00000	98.76315	-661.34877	98.76315
20850.00000	98.68348	-662.42439	98.68348
20900.00000	98.50634	-663.00943	98.50634
20950.00000	98.42082	-662.97155	98.42082
21000.00000	98.37162	-663.24673	98.37162
21050.00000	98.49677	-663.48322	98.49677
21100.00000	98.51131	-663.50201	98.51131
21150.00000	98.68440	-664.21043	98.68440
21200.00000	98.86941	-664.45423	98.86941
21250.00000	99.04142	-666.39972	99.04142
21300.00000	99.26062	-666.95705	99.26062
21350.00000	99.44848	-668.45455	99.44848
21400.00000	99.66522	-670.41849	99.66522
21450.00000	99.88507	-672.31701	99.88507
21500.00000	100.08795	-674.84772	100.08795
21550.00000	100.17347	-676.83566	100.17347
21600.00000	100.39026	-679.67970	100.39026
21650.00000	100.44395	-682.00066	100.44395
21700.00000	100.56887	-684.64973	100.56887
21750.00000	100.66738	-687.35518	100.66738
21800.00000	100.74415	-690.26434	100.74415
21850.00000	100.74582	-692.45151	100.74582
21900.00000	100.81392	-695.12599	100.81392
21950.00000	100.79402	-697.31311	100.79402
22000.00000	100.87081	-699.93764	100.87081
22050.00000	100.90562	-702.33871	100.90562
22100.00000	100.86742	-704.77855	100.86742
22150.00000	100.85455	-706.96876	100.85455
22200.00000	100.90999	-709.25178	100.90999
22250.00000	100.86642	-711.16972	100.86642
22300.00000	100.76100	-713.45302	100.76100
22350.00000	100.88470	-715.70368	100.88470
22400.00000	100.86087	-718.17176	100.86087
22450.00000	100.74492	-719.98065	100.74492
22500.00000	100.69744	-721.28603	100.69744
22550.00000	100.72917	-723.36196	100.72917
22600.00000	100.65700	-726.13356	100.65700
22650.00000	100.65913	-727.63332	100.65913
22700.00000	100.66107	-729.33682	100.66107
22750.00000	100.60649	-729.34984	100.60649
22800.00000	100.63825	-733.20414	100.63825
22850.00000	100.65902	-735.14059	100.65902
22900.00000	100.72164	-735.79017	100.72164
22950.00000	100.79266	-737.81298	100.79266
23000.00000	100.76416	-738.53939	100.76416
23050.00000	100.76061	-741.12726	100.76061
