---ACOUSTIC CALIBRATION---
Filename: C:\Data\AZH DATA\AZH61\RightSecondary.calib
Date: 8/27/2019 3:33:02 PM
Format: 4
Probe Tube Correction File: C:\Data\Probe Tube Calibrations\50_ProbeTube.calib
Experiment VIs: 850
EPL_CFTS.exe V12.0.1 (2012)
DAQmx V9.6

Attenuation (dB): 40.000000
Min Freq (Hz): 50.000000
Max Freq (Hz): 49950.000000
Freq Step (Hz): 50.000000
Sample Rate (Hz): 100000.000000
[Smoothing]
Method=None
MA.Iterations=0
MA.Length=0
Loess.Length=0
Loess.Type=Linear
Loess.Robust=FALSE


Freq(Hz)	Mag(dB)	Phase(deg)	Unsmoothed(dB)

50.00000	94.56519	310.30704	94.56519
100.00000	83.79278	239.10453	83.79278
150.00000	73.52980	86.26986	73.52980
200.00000	75.19688	43.93074	75.19688
250.00000	86.48342	39.98453	86.48342
300.00000	84.21604	-34.18138	84.21604
350.00000	82.87028	-29.41793	82.87028
400.00000	84.88096	-44.02720	84.88096
450.00000	85.43007	-49.42496	85.43007
500.00000	87.15070	-47.97670	87.15070
550.00000	89.17322	-42.82482	89.17322
600.00000	91.88725	-56.64334	91.88725
650.00000	92.83545	-52.50535	92.83545
700.00000	94.95522	-64.24584	94.95522
750.00000	96.71997	-61.90990	96.71997
800.00000	99.65324	-75.51195	99.65324
850.00000	101.62683	-83.00713	101.62683
900.00000	103.09659	-101.00959	103.09659
950.00000	104.29151	-117.11283	104.29151
1000.00000	104.23626	-134.82462	104.23626
1050.00000	103.61473	-143.98121	103.61473
1100.00000	103.83038	-156.32617	103.83038
1150.00000	102.78429	-167.32518	102.78429
1200.00000	102.20206	-168.64588	102.20206
1250.00000	102.32093	-179.92580	102.32093
1300.00000	101.20852	-185.52183	101.20852
1350.00000	100.45895	-190.22918	100.45895
1400.00000	99.38622	-188.48540	99.38622
1450.00000	99.86306	-188.93978	99.86306
1500.00000	99.64460	-189.23790	99.64460
1550.00000	99.91455	-192.26497	99.91455
1600.00000	100.36806	-196.42715	100.36806
1650.00000	101.21404	-204.02314	101.21404
1700.00000	99.70627	-209.39490	99.70627
1750.00000	99.76989	-209.71545	99.76989
1800.00000	99.44505	-213.83930	99.44505
1850.00000	99.13548	-209.50171	99.13548
1900.00000	100.12650	-210.07829	100.12650
1950.00000	100.91068	-217.43590	100.91068
2000.00000	100.92099	-226.56095	100.92099
2050.00000	99.58219	-230.68048	99.58219
2100.00000	99.82097	-232.57588	99.82097
2150.00000	99.33150	-236.13093	99.33150
2200.00000	98.90585	-237.06717	98.90585
2250.00000	97.85215	-241.31707	97.85215
2300.00000	97.96628	-239.30381	97.96628
2350.00000	97.44011	-239.66069	97.44011
2400.00000	97.32279	-237.36390	97.32279
2450.00000	97.24932	-241.05005	97.24932
2500.00000	96.68143	-239.37304	96.68143
2550.00000	96.26547	-237.85247	96.26547
2600.00000	96.05377	-230.82636	96.05377
2650.00000	97.14052	-223.01408	97.14052
2700.00000	98.85316	-220.81066	98.85316
2750.00000	100.50656	-228.60780	100.50656
2800.00000	101.14823	-238.60580	101.14823
2850.00000	101.09499	-246.44158	101.09499
2900.00000	100.62551	-253.00234	100.62551
2950.00000	100.40385	-257.19269	100.40385
3000.00000	99.98767	-260.70497	99.98767
3050.00000	99.47359	-263.90270	99.47359
3100.00000	99.29320	-265.52188	99.29320
3150.00000	98.87687	-269.99176	98.87687
3200.00000	98.19283	-272.14151	98.19283
3250.00000	97.54366	-274.41931	97.54366
3300.00000	96.74391	-276.22388	96.74391
3350.00000	95.45367	-273.43977	95.45367
3400.00000	94.47771	-266.50762	94.47771
3450.00000	94.27524	-257.90299	94.27524
3500.00000	94.75785	-251.35224	94.75785
3550.00000	95.26221	-247.87057	95.26221
3600.00000	95.34230	-244.72837	95.34230
3650.00000	95.17644	-242.38565	95.17644
3700.00000	95.04769	-233.85690	95.04769
3750.00000	95.87895	-221.50067	95.87895
3800.00000	97.59322	-213.04142	97.59322
3850.00000	99.47616	-208.90958	99.47616
3900.00000	101.42693	-209.20049	101.42693
3950.00000	103.07984	-211.75017	103.07984
4000.00000	104.36342	-215.39904	104.36342
4050.00000	105.47268	-220.16211	105.47268
4100.00000	106.32129	-223.84290	106.32129
4150.00000	107.35785	-227.32567	107.35785
4200.00000	108.03263	-230.99585	108.03263
4250.00000	108.84844	-233.38376	108.84844
4300.00000	109.74988	-235.75460	109.74988
4350.00000	110.69760	-238.04767	110.69760
4400.00000	111.82497	-240.45675	111.82497
4450.00000	113.04049	-243.49756	113.04049
4500.00000	114.38765	-247.86496	114.38765
4550.00000	115.78465	-253.57575	115.78465
4600.00000	117.13159	-260.73929	117.13159
4650.00000	118.52369	-269.24525	118.52369
4700.00000	119.82208	-279.69306	119.82208
4750.00000	120.95066	-292.11685	120.95066
4800.00000	121.79604	-306.39597	121.79604
4850.00000	122.19856	-321.65072	122.19856
4900.00000	122.12600	-337.10086	122.12600
4950.00000	121.57516	-351.54529	121.57516
5000.00000	120.55067	-363.57381	120.55067
5050.00000	119.50650	-371.86934	119.50650
5100.00000	118.31276	-381.35928	118.31276
5150.00000	115.83491	-384.13820	115.83491
5200.00000	114.63797	-365.97722	114.63797
5250.00000	117.70049	-359.58056	117.70049
5300.00000	119.48914	-372.59020	119.48914
5350.00000	119.82896	-386.10798	119.82896
5400.00000	119.58671	-397.17225	119.58671
5450.00000	119.16683	-406.00769	119.16683
5500.00000	118.69358	-413.61282	118.69358
5550.00000	118.22832	-420.09697	118.22832
5600.00000	117.75994	-426.03458	117.75994
5650.00000	117.32329	-431.40816	117.32329
5700.00000	116.88054	-436.56234	116.88054
5750.00000	116.46045	-441.20427	116.46045
5800.00000	116.04534	-445.77056	116.04534
5850.00000	115.67103	-450.14061	115.67103
5900.00000	115.29646	-454.18957	115.29646
5950.00000	114.94023	-458.13960	114.94023
6000.00000	114.59262	-461.86841	114.59262
6050.00000	114.23213	-465.56459	114.23213
6100.00000	113.90041	-469.16994	113.90041
6150.00000	113.55728	-472.69419	113.55728
6200.00000	113.22635	-476.02357	113.22635
6250.00000	112.90873	-479.34357	112.90873
6300.00000	112.60355	-482.65475	112.60355
6350.00000	112.29383	-485.86291	112.29383
6400.00000	111.98482	-489.00817	111.98482
6450.00000	111.70036	-492.18668	111.70036
6500.00000	111.37854	-495.27936	111.37854
6550.00000	111.07073	-498.16063	111.07073
6600.00000	110.76588	-500.92802	110.76588
6650.00000	110.46895	-503.62217	110.46895
6700.00000	110.16607	-506.28226	110.16607
6750.00000	109.88249	-508.64913	109.88249
6800.00000	109.58658	-510.95179	109.58658
6850.00000	109.32174	-513.16841	109.32174
6900.00000	109.07181	-515.12744	109.07181
6950.00000	108.84096	-517.16719	108.84096
7000.00000	108.63650	-519.16266	108.63650
7050.00000	108.43026	-521.26234	108.43026
7100.00000	108.25110	-523.28276	108.25110
7150.00000	108.04838	-525.25139	108.04838
7200.00000	107.87613	-527.34094	107.87613
7250.00000	107.70352	-529.14323	107.70352
7300.00000	107.60113	-530.96997	107.60113
7350.00000	107.47438	-532.50583	107.47438
7400.00000	107.39691	-534.36489	107.39691
7450.00000	107.33986	-536.17976	107.33986
7500.00000	107.34665	-538.05417	107.34665
7550.00000	107.33751	-540.08441	107.33751
7600.00000	107.33518	-542.46121	107.33518
7650.00000	107.36296	-544.84734	107.36296
7700.00000	107.44060	-547.52725	107.44060
7750.00000	107.43170	-550.40925	107.43170
7800.00000	107.46571	-553.73693	107.46571
7850.00000	107.46151	-557.25757	107.46151
7900.00000	107.42022	-560.85354	107.42022
7950.00000	107.32513	-564.77656	107.32513
8000.00000	107.21711	-568.45547	107.21711
8050.00000	107.05952	-572.63151	107.05952
8100.00000	106.90233	-575.99172	106.90233
8150.00000	106.63889	-579.54275	106.63889
8200.00000	106.41120	-582.76295	106.41120
8250.00000	106.13884	-586.28993	106.13884
8300.00000	105.86749	-589.57606	105.86749
8350.00000	105.54372	-592.45649	105.54372
8400.00000	105.21560	-595.76769	105.21560
8450.00000	104.82491	-598.43675	104.82491
8500.00000	104.46692	-601.12347	104.46692
8550.00000	104.15695	-603.18294	104.15695
8600.00000	103.80706	-605.59181	103.80706
8650.00000	103.45546	-607.58016	103.45546
8700.00000	103.15508	-610.07821	103.15508
8750.00000	102.80633	-611.24647	102.80633
8800.00000	102.52715	-613.30406	102.52715
8850.00000	102.19693	-615.20068	102.19693
8900.00000	101.96031	-616.60547	101.96031
8950.00000	101.72593	-618.65332	101.72593
9000.00000	101.43982	-620.26129	101.43982
9050.00000	101.31722	-622.10357	101.31722
9100.00000	101.15512	-623.67095	101.15512
9150.00000	101.01929	-625.23353	101.01929
9200.00000	100.92854	-626.73428	100.92854
9250.00000	100.77102	-627.98695	100.77102
9300.00000	100.67397	-629.50425	100.67397
9350.00000	100.61518	-630.88160	100.61518
9400.00000	100.39821	-631.80226	100.39821
9450.00000	100.34793	-633.37475	100.34793
9500.00000	100.28766	-634.89483	100.28766
9550.00000	100.18105	-636.50384	100.18105
9600.00000	100.18153	-638.52073	100.18153
9650.00000	100.14045	-640.78127	100.14045
9700.00000	100.08974	-642.39259	100.08974
9750.00000	100.14431	-645.11084	100.14431
9800.00000	100.09067	-646.60105	100.09067
9850.00000	100.04176	-647.92375	100.04176
9900.00000	99.85485	-649.80836	99.85485
9950.00000	99.71362	-650.95307	99.71362
10000.00000	99.54556	-653.16465	99.54556
10050.00000	99.32755	-654.89328	99.32755
10100.00000	99.11201	-657.04693	99.11201
10150.00000	98.85525	-659.98782	98.85525
10200.00000	98.69038	-662.63720	98.69038
10250.00000	98.55504	-665.57005	98.55504
10300.00000	98.58536	-668.01373	98.58536
10350.00000	98.50418	-670.16121	98.50418
10400.00000	98.38473	-672.27605	98.38473
10450.00000	98.38554	-674.29956	98.38554
10500.00000	98.35175	-676.10892	98.35175
10550.00000	98.24056	-678.07253	98.24056
10600.00000	98.06929	-680.05505	98.06929
10650.00000	97.87554	-681.91826	97.87554
10700.00000	97.74148	-685.19630	97.74148
10750.00000	97.68172	-687.89544	97.68172
10800.00000	97.54654	-690.38045	97.54654
10850.00000	97.45618	-693.73514	97.45618
10900.00000	97.37956	-696.00737	97.37956
10950.00000	97.26778	-697.87674	97.26778
11000.00000	97.11645	-699.97011	97.11645
11050.00000	96.75609	-702.03263	96.75609
11100.00000	96.48950	-704.73061	96.48950
11150.00000	96.11762	-706.80221	96.11762
11200.00000	95.91662	-709.11468	95.91662
11250.00000	95.58896	-711.94533	95.58896
11300.00000	95.27572	-714.46360	95.27572
11350.00000	95.03818	-716.13228	95.03818
11400.00000	94.72598	-717.77818	94.72598
11450.00000	94.49453	-719.63033	94.49453
11500.00000	94.35948	-720.34435	94.35948
11550.00000	93.98664	-721.43184	93.98664
11600.00000	93.80394	-723.43374	93.80394
11650.00000	93.51391	-723.82266	93.51391
11700.00000	93.36084	-725.39490	93.36084
11750.00000	93.27138	-727.05559	93.27138
11800.00000	93.16319	-728.91480	93.16319
11850.00000	93.12188	-729.36668	93.12188
11900.00000	92.86228	-731.21847	92.86228
11950.00000	92.77308	-732.16628	92.77308
12000.00000	92.56840	-733.37863	92.56840
12050.00000	92.30824	-734.80347	92.30824
12100.00000	92.16294	-737.82026	92.16294
12150.00000	91.97054	-740.15847	91.97054
12200.00000	91.88262	-742.66481	91.88262
12250.00000	91.73122	-744.60008	91.73122
12300.00000	92.71076	-746.97188	92.71076
12350.00000	91.37134	-748.86875	91.37134
12400.00000	91.09219	-749.70743	91.09219
12450.00000	90.71893	-751.02175	90.71893
12500.00000	90.35232	-753.09053	90.35232
12550.00000	90.01474	-754.66802	90.01474
12600.00000	89.57940	-756.47371	89.57940
12650.00000	89.39241	-758.32082	89.39241
12700.00000	88.95690	-759.46047	88.95690
12750.00000	88.64457	-760.93163	88.64457
12800.00000	88.26178	-761.19500	88.26178
12850.00000	87.61129	-761.33879	87.61129
12900.00000	87.32696	-762.74832	87.32696
12950.00000	87.02050	-763.34233	87.02050
13000.00000	86.73978	-764.35946	86.73978
13050.00000	86.58209	-763.63609	86.58209
13100.00000	86.36947	-764.11712	86.36947
13150.00000	86.24176	-763.57722	86.24176
13200.00000	85.95327	-761.76417	85.95327
13250.00000	85.66150	-761.83578	85.66150
13300.00000	85.27262	-759.59642	85.27262
13350.00000	85.01825	-760.86872	85.01825
13400.00000	84.84656	-761.24246	84.84656
13450.00000	84.49687	-760.54337	84.49687
13500.00000	84.63401	-759.30708	84.63401
13550.00000	84.33940	-758.85904	84.33940
13600.00000	84.09153	-757.27423	84.09153
13650.00000	84.04256	-756.30050	84.04256
13700.00000	83.80359	-755.41380	83.80359
13750.00000	83.42461	-753.48588	83.42461
13800.00000	83.27341	-754.89598	83.27341
13850.00000	83.26080	-755.10504	83.26080
13900.00000	83.16352	-753.94604	83.16352
13950.00000	83.24338	-752.11498	83.24338
14000.00000	83.39989	-751.02861	83.39989
14050.00000	83.57917	-749.24707	83.57917
14100.00000	83.37595	-746.97734	83.37595
14150.00000	83.47476	-746.01617	83.47476
14200.00000	83.45028	-746.63763	83.45028
14250.00000	83.88768	-741.77898	83.88768
14300.00000	83.82281	-740.45428	83.82281
14350.00000	83.85509	-738.61334	83.85509
14400.00000	83.74605	-739.13202	83.74605
14450.00000	83.81072	-736.62540	83.81072
14500.00000	83.82242	-737.52075	83.82242
14550.00000	84.29594	-737.26760	84.29594
14600.00000	84.40166	-737.42789	84.40166
14650.00000	85.02150	-733.56944	85.02150
14700.00000	85.24360	-737.45095	85.24360
14750.00000	85.59426	-735.63060	85.59426
14800.00000	85.69851	-734.72593	85.69851
14850.00000	86.13372	-735.35008	86.13372
14900.00000	86.66417	-735.67376	86.66417
14950.00000	86.89044	-736.57729	86.89044
15000.00000	87.35338	-737.72918	87.35338
15050.00000	87.60568	-737.34746	87.60568
15100.00000	87.99700	-736.67846	87.99700
15150.00000	88.42117	-738.72520	88.42117
15200.00000	88.69390	-736.97489	88.69390
15250.00000	88.85023	-737.65773	88.85023
15300.00000	89.30974	-738.10433	89.30974
15350.00000	89.55745	-739.65071	89.55745
15400.00000	89.79516	-738.03041	89.79516
15450.00000	90.02914	-738.47290	90.02914
15500.00000	90.43698	-740.43080	90.43698
15550.00000	90.82024	-742.01181	90.82024
15600.00000	91.08763	-743.50314	91.08763
15650.00000	91.61113	-743.89915	91.61113
15700.00000	91.91011	-746.02091	91.91011
15750.00000	92.48188	-746.93630	92.48188
15800.00000	92.79422	-747.60535	92.79422
15850.00000	93.14082	-749.21684	93.14082
15900.00000	93.40690	-752.04683	93.40690
15950.00000	93.83837	-754.01923	93.83837
16000.00000	94.35698	-755.96272	94.35698
16050.00000	94.78831	-756.99601	94.78831
16100.00000	94.95347	-759.74914	94.95347
16150.00000	95.23782	-761.69984	95.23782
16200.00000	95.61834	-764.55614	95.61834
16250.00000	95.93608	-766.54873	95.93608
16300.00000	96.40158	-768.76282	96.40158
16350.00000	96.65541	-771.29006	96.65541
16400.00000	96.82922	-773.88500	96.82922
16450.00000	97.09408	-777.07286	97.09408
16500.00000	97.33022	-779.94854	97.33022
16550.00000	97.59511	-783.39237	97.59511
16600.00000	97.91297	-786.49603	97.91297
16650.00000	98.13062	-788.65297	98.13062
16700.00000	98.30517	-790.57028	98.30517
16750.00000	98.44056	-793.40818	98.44056
16800.00000	98.59974	-795.94160	98.59974
16850.00000	98.78557	-798.36711	98.78557
16900.00000	99.03776	-801.28067	99.03776
16950.00000	99.15423	-803.43156	99.15423
17000.00000	99.15049	-806.39322	99.15049
17050.00000	99.33826	-808.07407	99.33826
17100.00000	99.46040	-809.80353	99.46040
17150.00000	99.83634	-813.46788	99.83634
17200.00000	100.08686	-815.49535	100.08686
17250.00000	100.19130	-818.05680	100.19130
17300.00000	100.49369	-819.96639	100.49369
17350.00000	100.50314	-821.78996	100.50314
17400.00000	100.69685	-824.63786	100.69685
17450.00000	100.81724	-827.76336	100.81724
17500.00000	101.07155	-830.49990	101.07155
17550.00000	101.19682	-833.37700	101.19682
17600.00000	101.53310	-835.57356	101.53310
17650.00000	101.68094	-839.17512	101.68094
17700.00000	101.84544	-842.28969	101.84544
17750.00000	102.15587	-844.41202	102.15587
17800.00000	102.19827	-847.56026	102.19827
17850.00000	102.37384	-849.92610	102.37384
17900.00000	102.47156	-852.84167	102.47156
17950.00000	102.62153	-856.34668	102.62153
18000.00000	102.76697	-860.18125	102.76697
18050.00000	103.02546	-862.71133	103.02546
18100.00000	103.09245	-866.58485	103.09245
18150.00000	103.24294	-868.92150	103.24294
18200.00000	103.27976	-872.39894	103.27976
18250.00000	103.43773	-874.81132	103.43773
18300.00000	103.60186	-877.97959	103.60186
18350.00000	103.64444	-880.76194	103.64444
18400.00000	103.67097	-884.39338	103.67097
18450.00000	103.66501	-888.75178	103.66501
18500.00000	103.78541	-891.82524	103.78541
18550.00000	103.91084	-894.67676	103.91084
18600.00000	104.10924	-898.02703	104.10924
18650.00000	104.05860	-900.72053	104.05860
18700.00000	104.02554	-904.16436	104.02554
18750.00000	104.09922	-907.41289	104.09922
18800.00000	104.26160	-910.11714	104.26160
18850.00000	104.17396	-913.72625	104.17396
18900.00000	104.21835	-916.94189	104.21835
18950.00000	104.32835	-920.76830	104.32835
19000.00000	104.20628	-923.30007	104.20628
19050.00000	104.35326	-926.63768	104.35326
19100.00000	104.30457	-929.63902	104.30457
19150.00000	104.41003	-932.83242	104.41003
19200.00000	104.37764	-935.85637	104.37764
19250.00000	104.34106	-940.26164	104.34106
19300.00000	104.28596	-943.00190	104.28596
19350.00000	104.31869	-946.29381	104.31869
19400.00000	104.27664	-949.19652	104.27664
19450.00000	104.33170	-951.85478	104.33170
19500.00000	104.15501	-955.77272	104.15501
19550.00000	104.12536	-958.99255	104.12536
19600.00000	104.13168	-962.91016	104.13168
19650.00000	104.04300	-965.85733	104.04300
19700.00000	103.92097	-968.92675	103.92097
19750.00000	103.79912	-971.35589	103.79912
19800.00000	103.78475	-975.38936	103.78475
19850.00000	103.70201	-978.15320	103.70201
19900.00000	103.53697	-982.11348	103.53697
19950.00000	103.41802	-985.16801	103.41802
20000.00000	103.32452	-988.33878	103.32452
20050.00000	103.23253	-991.13774	103.23253
20100.00000	102.98513	-994.10017	102.98513
20150.00000	102.90688	-996.10017	102.90688
20200.00000	102.68824	-999.64616	102.68824
20250.00000	102.46104	-1002.44109	102.46104
20300.00000	102.23929	-1005.16662	102.23929
20350.00000	102.15235	-1007.91926	102.15235
20400.00000	101.89838	-1009.39766	101.89838
20450.00000	101.60468	-1011.61244	101.60468
20500.00000	101.43931	-1014.17253	101.43931
20550.00000	101.00138	-1015.73601	101.00138
20600.00000	100.89933	-1017.39512	100.89933
20650.00000	100.73920	-1018.96520	100.73920
20700.00000	100.48410	-1019.99622	100.48410
20750.00000	100.32289	-1021.03386	100.32289
20800.00000	100.09013	-1021.89408	100.09013
20850.00000	99.99687	-1023.13038	99.99687
20900.00000	99.86815	-1023.73710	99.86815
20950.00000	99.78043	-1023.63789	99.78043
21000.00000	99.72367	-1023.85009	99.72367
21050.00000	99.81357	-1023.88200	99.81357
21100.00000	99.82266	-1024.15960	99.82266
21150.00000	100.01506	-1024.82735	100.01506
21200.00000	100.21818	-1025.15041	100.21818
21250.00000	100.39097	-1027.05522	100.39097
21300.00000	100.61646	-1027.51482	100.61646
21350.00000	100.80141	-1028.87700	100.80141
21400.00000	101.00171	-1031.05257	101.00171
21450.00000	101.22984	-1033.22821	101.22984
21500.00000	101.45076	-1035.55475	101.45076
21550.00000	101.52705	-1037.58714	101.52705
21600.00000	101.73025	-1040.10517	101.73025
21650.00000	101.79774	-1042.97713	101.79774
21700.00000	101.88944	-1045.49004	101.88944
21750.00000	102.03307	-1048.19183	102.03307
21800.00000	102.12427	-1050.60563	102.12427
21850.00000	102.06813	-1052.96771	102.06813
21900.00000	102.12873	-1055.71493	102.12873
21950.00000	102.11034	-1058.32879	102.11034
22000.00000	102.26034	-1061.11177	102.26034
22050.00000	102.27325	-1062.75281	102.27325
22100.00000	102.24373	-1064.97358	102.24373
22150.00000	102.13928	-1067.16959	102.13928
22200.00000	102.20442	-1070.27278	102.20442
22250.00000	102.20816	-1072.00963	102.20816
22300.00000	102.15112	-1074.13459	102.15112
22350.00000	102.24077	-1076.12166	102.24077
22400.00000	102.09904	-1078.44041	102.09904
22450.00000	102.04437	-1080.67274	102.04437
22500.00000	102.08146	-1082.03564	102.08146
22550.00000	102.13381	-1083.94259	102.13381
22600.00000	102.03873	-1086.33097	102.03873
22650.00000	101.97299	-1088.09659	101.97299
22700.00000	101.94307	-1090.46504	101.94307
22750.00000	102.01945	-1090.98498	102.01945
