---ACOUSTIC CALIBRATION---
Filename: C:\Data\AZH DATA\AZH61\RightSecondary.calib
Date: 8/27/2019 3:34:37 PM
Format: 4
Probe Tube Correction File: C:\Data\Probe Tube Calibrations\50_ProbeTube.calib
Experiment VIs: 850
EPL_CFTS.exe V12.0.1 (2012)
DAQmx V9.6

Attenuation (dB): 40.000000
Min Freq (Hz): 50.000000
Max Freq (Hz): 49950.000000
Freq Step (Hz): 50.000000
Sample Rate (Hz): 100000.000000
[Smoothing]
Method=None
MA.Iterations=0
MA.Length=0
Loess.Length=0
Loess.Type=Linear
Loess.Robust=FALSE


Freq(Hz)	Mag(dB)	Phase(deg)	Unsmoothed(dB)

50.00000	93.82776	301.93891	93.82776
100.00000	83.38531	383.73106	83.38531
150.00000	68.49969	395.44066	68.49969
200.00000	67.64647	292.53844	67.64647
250.00000	81.29111	360.00390	81.29111
300.00000	74.08691	220.01118	74.08691
350.00000	77.95146	297.11802	77.95146
400.00000	80.78712	286.55144	80.78712
450.00000	81.09923	276.78537	81.09923
500.00000	82.83953	278.91532	82.83953
550.00000	84.58531	279.58741	84.58531
600.00000	87.33372	267.37134	87.33372
650.00000	87.04522	267.42434	87.04522
700.00000	89.25236	257.00590	89.25236
750.00000	89.26657	257.89178	89.26657
800.00000	92.33016	247.90256	92.33016
850.00000	93.37241	243.82348	93.37241
900.00000	94.68089	226.17436	94.68089
950.00000	95.71280	213.53617	95.71280
1000.00000	95.58846	198.45687	95.58846
1050.00000	94.83692	189.78379	94.83692
1100.00000	94.88725	178.89993	94.88725
1150.00000	93.84592	168.49483	93.84592
1200.00000	92.93864	167.62749	92.93864
1250.00000	93.12391	157.08480	93.12391
1300.00000	91.74524	153.52710	91.74524
1350.00000	91.30516	149.63327	91.30516
1400.00000	90.01171	151.82351	90.01171
1450.00000	90.57895	152.00147	90.57895
1500.00000	90.31933	149.71516	90.31933
1550.00000	90.83704	148.14936	90.83704
1600.00000	91.47981	144.73602	91.47981
1650.00000	92.15612	136.92991	92.15612
1700.00000	90.60340	129.80703	90.60340
1750.00000	90.37055	130.61423	90.37055
1800.00000	90.20235	124.70787	90.20235
1850.00000	89.69930	131.37624	89.69930
1900.00000	90.51069	130.54294	90.51069
1950.00000	91.42322	123.94633	91.42322
2000.00000	91.51444	113.78942	91.51444
2050.00000	89.89379	113.02230	89.89379
2100.00000	90.12159	107.30332	90.12159
2150.00000	89.75763	105.48784	89.75763
2200.00000	89.43995	105.04206	89.43995
2250.00000	88.11680	100.40108	88.11680
2300.00000	88.26391	103.10123	88.26391
2350.00000	87.59169	99.86104	87.59169
2400.00000	87.29575	103.20683	87.29575
2450.00000	87.05470	98.91798	87.05470
2500.00000	86.67933	102.57990	86.67933
2550.00000	85.98537	102.03795	85.98537
2600.00000	85.56475	109.37629	85.56475
2650.00000	86.20969	118.81907	86.20969
2700.00000	88.10499	121.83218	88.10499
2750.00000	89.49029	116.70533	89.49029
2800.00000	90.32936	106.93354	90.32936
2850.00000	90.45312	99.30874	90.45312
2900.00000	89.87145	92.23749	89.87145
2950.00000	89.68804	88.75123	89.68804
3000.00000	89.31710	86.49561	89.31710
3050.00000	88.82004	84.65164	88.82004
3100.00000	88.58463	81.99457	88.58463
3150.00000	88.12438	78.59315	88.12438
3200.00000	87.54563	76.80391	87.54563
3250.00000	86.91827	74.75462	86.91827
3300.00000	85.94342	73.91109	85.94342
3350.00000	84.91112	75.92303	84.91112
3400.00000	84.09414	85.77752	84.09414
3450.00000	83.97605	94.37891	83.97605
3500.00000	84.50771	99.99173	84.50771
3550.00000	85.17355	103.96585	85.17355
3600.00000	85.59050	105.81982	85.59050
3650.00000	85.54828	107.49831	85.54828
3700.00000	85.34328	114.81570	85.34328
3750.00000	86.11483	124.33678	86.11483
3800.00000	87.63102	132.85938	87.63102
3850.00000	89.18008	134.87747	89.18008
3900.00000	90.77880	134.39973	90.77880
3950.00000	92.43645	133.35216	92.43645
4000.00000	93.36026	129.48105	93.36026
4050.00000	94.66322	125.56195	94.66322
4100.00000	95.42143	122.29281	95.42143
4150.00000	96.38270	118.21187	96.38270
4200.00000	96.97416	114.44889	96.97416
4250.00000	97.68479	112.88138	97.68479
4300.00000	98.41776	111.26641	98.41776
4350.00000	99.29479	110.41367	99.29479
4400.00000	100.38935	109.11674	100.38935
4450.00000	101.63119	106.90335	101.63119
4500.00000	103.03966	103.14252	103.03966
4550.00000	104.47299	98.00453	104.47299
4600.00000	105.88014	91.34841	105.88014
4650.00000	107.32490	83.07629	107.32490
4700.00000	108.68387	72.88476	108.68387
4750.00000	109.85094	60.60870	109.85094
4800.00000	110.74076	46.43451	110.74076
4850.00000	111.15889	31.21276	111.15889
4900.00000	111.09463	15.79416	111.09463
4950.00000	110.55493	 1.47442	110.55493
5000.00000	109.56161	-10.46855	109.56161
5050.00000	108.48965	-18.66205	108.48965
5100.00000	107.31126	-28.04304	107.31126
5150.00000	104.87586	-30.79150	104.87586
5200.00000	103.68418	-12.65214	103.68418
5250.00000	106.73033	-6.37232	106.73033
5300.00000	108.50818	-19.40439	108.50818
5350.00000	108.82465	-32.87493	108.82465
5400.00000	108.57482	-43.87909	108.57482
5450.00000	108.14217	-52.49894	108.14217
5500.00000	107.68576	-59.92344	107.68576
5550.00000	107.20478	-66.23574	107.20478
5600.00000	106.75432	-72.10372	106.75432
5650.00000	106.31706	-77.35056	106.31706
5700.00000	105.86192	-82.48316	105.86192
5750.00000	105.45866	-86.98001	105.45866
5800.00000	105.04071	-91.32782	105.04071
5850.00000	104.65943	-95.58095	104.65943
5900.00000	104.29519	-99.62932	104.29519
5950.00000	103.92249	-103.60191	103.92249
6000.00000	103.59472	-107.06261	103.59472
6050.00000	103.23436	-110.70527	103.23436
6100.00000	102.90069	-114.20695	102.90069
6150.00000	102.58790	-117.69991	102.58790
6200.00000	102.23450	-120.93758	102.23450
6250.00000	101.94288	-124.32508	101.94288
6300.00000	101.64047	-127.28926	101.64047
6350.00000	101.31636	-130.73526	101.31636
6400.00000	101.01296	-133.57523	101.01296
6450.00000	100.73675	-136.74667	100.73675
6500.00000	100.41225	-139.75201	100.41225
6550.00000	100.10433	-142.60417	100.10433
6600.00000	99.78699	-145.25084	99.78699
6650.00000	99.50149	-147.82234	99.50149
6700.00000	99.21125	-150.29845	99.21125
6750.00000	98.90455	-152.74590	98.90455
6800.00000	98.68926	-155.04569	98.68926
6850.00000	98.40466	-157.34531	98.40466
6900.00000	98.15876	-159.28668	98.15876
6950.00000	97.94420	-161.26253	97.94420
7000.00000	97.73469	-163.29424	97.73469
7050.00000	97.52237	-165.21156	97.52237
7100.00000	97.34764	-167.47266	97.34764
7150.00000	97.17395	-169.23368	97.17395
7200.00000	96.99783	-171.24723	96.99783
7250.00000	96.83049	-173.34296	96.83049
7300.00000	96.68588	-174.80864	96.68588
7350.00000	96.57234	-176.80186	96.57234
7400.00000	96.48614	-178.60525	96.48614
7450.00000	96.48411	-180.16386	96.48411
7500.00000	96.43687	-182.17490	96.43687
7550.00000	96.40547	-184.45333	96.40547
7600.00000	96.41746	-186.74478	96.41746
7650.00000	96.41119	-189.20714	96.41119
7700.00000	96.48290	-191.60481	96.48290
7750.00000	96.48606	-194.91861	96.48606
7800.00000	96.45826	-198.03063	96.45826
7850.00000	96.43782	-201.32700	96.43782
7900.00000	96.41191	-204.51240	96.41191
7950.00000	96.32943	-208.38661	96.32943
8000.00000	96.18430	-211.92750	96.18430
8050.00000	96.06001	-215.96370	96.06001
8100.00000	95.89609	-219.39497	95.89609
8150.00000	95.61164	-222.95704	95.61164
8200.00000	95.36260	-226.01039	95.36260
8250.00000	95.05432	-229.44275	95.05432
8300.00000	94.79961	-232.20344	94.79961
8350.00000	94.52867	-234.99763	94.52867
8400.00000	94.21117	-238.44789	94.21117
8450.00000	93.87769	-240.85909	93.87769
8500.00000	93.50200	-243.42871	93.50200
8550.00000	93.20807	-245.65050	93.20807
8600.00000	92.81881	-247.52167	92.81881
8650.00000	92.49518	-249.84654	92.49518
8700.00000	92.21123	-252.49091	92.21123
8750.00000	91.83921	-253.44414	91.83921
8800.00000	91.62006	-255.43446	91.62006
8850.00000	91.29315	-257.50515	91.29315
8900.00000	91.09163	-259.31145	91.09163
8950.00000	90.78463	-260.92922	90.78463
9000.00000	90.59132	-262.25381	90.59132
9050.00000	90.41417	-264.14174	90.41417
9100.00000	90.23740	-265.43782	90.23740
9150.00000	90.10303	-267.20632	90.10303
9200.00000	90.01395	-268.73493	90.01395
9250.00000	89.83022	-270.16971	89.83022
9300.00000	89.72988	-271.54566	89.72988
9350.00000	89.67605	-273.54307	89.67605
9400.00000	89.44584	-274.42242	89.44584
9450.00000	89.41169	-276.11248	89.41169
9500.00000	89.38005	-277.04061	89.38005
9550.00000	89.26699	-278.55420	89.26699
9600.00000	89.22043	-280.38699	89.22043
9650.00000	89.15809	-282.88493	89.15809
9700.00000	89.11337	-283.91954	89.11337
9750.00000	89.13544	-286.06129	89.13544
9800.00000	88.99384	-287.83484	88.99384
9850.00000	88.93229	-289.34927	88.93229
9900.00000	88.73679	-291.68913	88.73679
9950.00000	88.59319	-293.49517	88.59319
10000.00000	88.49926	-295.60512	88.49926
10050.00000	88.34131	-297.59524	88.34131
10100.00000	88.14972	-299.21082	88.14972
10150.00000	87.97652	-301.91409	87.97652
10200.00000	87.87920	-303.86653	87.87920
10250.00000	87.72598	-306.34618	87.72598
10300.00000	87.68533	-308.61078	87.68533
10350.00000	87.53005	-310.38053	87.53005
10400.00000	87.38138	-313.07986	87.38138
10450.00000	87.29332	-315.49082	87.29332
10500.00000	87.26179	-317.74113	87.26179
10550.00000	87.14013	-319.93473	87.14013
10600.00000	87.06027	-321.90141	87.06027
10650.00000	86.93969	-323.82233	86.93969
10700.00000	86.88289	-326.62032	86.88289
10750.00000	86.83067	-328.85399	86.83067
10800.00000	86.64983	-331.06790	86.64983
10850.00000	86.48585	-334.41707	86.48585
10900.00000	86.38132	-336.46658	86.38132
10950.00000	86.20334	-338.35204	86.20334
11000.00000	86.03844	-340.83391	86.03844
11050.00000	85.70125	-343.30275	85.70125
11100.00000	85.48075	-345.88591	85.48075
11150.00000	85.18178	-347.94383	85.18178
11200.00000	85.01199	-350.12107	85.01199
11250.00000	84.68938	-352.50254	84.68938
11300.00000	84.37025	-354.67686	84.37025
11350.00000	84.06984	-356.04568	84.06984
11400.00000	83.69517	-357.73880	83.69517
11450.00000	83.43389	-359.83689	83.43389
11500.00000	83.34950	-361.08906	83.34950
11550.00000	82.96952	-362.12307	82.96952
11600.00000	82.87510	-364.15596	82.87510
11650.00000	82.64838	-364.71405	82.64838
11700.00000	82.49356	-365.52012	82.49356
11750.00000	82.40590	-366.87753	82.40590
11800.00000	82.22427	-368.68953	82.22427
11850.00000	82.20641	-369.39211	82.20641
11900.00000	81.90220	-371.34591	81.90220
11950.00000	81.85404	-372.94382	81.85404
12000.00000	81.64591	-373.96305	81.64591
12050.00000	81.38673	-374.77218	81.38673
12100.00000	81.28108	-378.32211	81.28108
12150.00000	81.14255	-380.01919	81.14255
12200.00000	80.94329	-382.40544	80.94329
12250.00000	80.77762	-384.14723	80.77762
12300.00000	81.68917	-386.87659	81.68917
12350.00000	80.40336	-389.22845	80.40336
12400.00000	80.16134	-390.56332	80.16134
12450.00000	79.70192	-391.31766	79.70192
12500.00000	79.49045	-393.79912	79.49045
12550.00000	79.09614	-394.97984	79.09614
12600.00000	78.68998	-396.94837	78.68998
12650.00000	78.47631	-398.79319	78.47631
12700.00000	78.09243	-399.48823	78.09243
12750.00000	77.73714	-400.98129	77.73714
12800.00000	77.42195	-401.72140	77.42195
12850.00000	76.80335	-401.11899	76.80335
12900.00000	76.42905	-401.66732	76.42905
12950.00000	76.13569	-401.99293	76.13569
13000.00000	75.92932	-403.53755	75.92932
13050.00000	75.78516	-403.04386	75.78516
13100.00000	75.38248	-403.04797	75.38248
13150.00000	75.04114	-404.13106	75.04114
13200.00000	75.15676	-401.43021	75.15676
13250.00000	74.68002	-400.88207	74.68002
13300.00000	74.41389	-399.56111	74.41389
13350.00000	74.09609	-399.92999	74.09609
13400.00000	74.43669	-400.73938	74.43669
13450.00000	73.61663	-399.11825	73.61663
13500.00000	73.49238	-398.15348	73.49238
13550.00000	73.27677	-397.58214	73.27677
13600.00000	72.97040	-397.64627	72.97040
13650.00000	72.92865	-396.15335	72.92865
13700.00000	72.53410	-395.59509	72.53410
13750.00000	72.68914	-392.46059	72.68914
13800.00000	72.36647	-395.20500	72.36647
13850.00000	72.20067	-394.01466	72.20067
13900.00000	71.77606	-395.22369	71.77606
13950.00000	72.60872	-393.42360	72.60872
14000.00000	72.46698	-388.75631	72.46698
14050.00000	72.46882	-388.23707	72.46882
14100.00000	72.69473	-387.95244	72.69473
14150.00000	72.16511	-387.36483	72.16511
14200.00000	72.31740	-384.45020	72.31740
14250.00000	73.27776	-384.81581	73.27776
14300.00000	73.10521	-381.73149	73.10521
14350.00000	72.99701	-376.37797	72.99701
14400.00000	73.09023	-379.51011	73.09023
14450.00000	73.23210	-374.71204	73.23210
14500.00000	73.08816	-375.25688	73.08816
14550.00000	73.48373	-375.42227	73.48373
14600.00000	73.75726	-375.82534	73.75726
14650.00000	74.12681	-373.00704	74.12681
14700.00000	74.25290	-373.88706	74.25290
14750.00000	74.91590	-374.43414	74.91590
14800.00000	74.72253	-373.84729	74.72253
14850.00000	75.34637	-373.60096	75.34637
14900.00000	76.02447	-374.77756	76.02447
14950.00000	76.23618	-375.35626	76.23618
15000.00000	76.06275	-374.50606	76.06275
15050.00000	76.79681	-375.52814	76.79681
15100.00000	76.71157	-374.13827	76.71157
15150.00000	77.55088	-376.00318	77.55088
15200.00000	77.66627	-375.73074	77.66627
15250.00000	78.01751	-372.90669	78.01751
15300.00000	78.28713	-377.10270	78.28713
15350.00000	78.66433	-379.29985	78.66433
15400.00000	78.44314	-376.69356	78.44314
15450.00000	78.82409	-378.52954	78.82409
15500.00000	79.53533	-381.69649	79.53533
15550.00000	80.11256	-378.51368	80.11256
15600.00000	80.37800	-383.69783	80.37800
15650.00000	80.81251	-381.89644	80.81251
15700.00000	81.23619	-384.08540	81.23619
15750.00000	81.50083	-385.82704	81.50083
15800.00000	81.88377	-385.70228	81.88377
15850.00000	82.27018	-390.13493	82.27018
15900.00000	82.67186	-392.67159	82.67186
15950.00000	83.14749	-392.15686	83.14749
16000.00000	83.73295	-394.89839	83.73295
16050.00000	83.82068	-396.10159	83.82068
16100.00000	84.21360	-397.00622	84.21360
16150.00000	84.45853	-400.67607	84.45853
16200.00000	84.68516	-405.26427	84.68516
16250.00000	85.10166	-405.74950	85.10166
16300.00000	85.31277	-408.93781	85.31277
16350.00000	85.73594	-411.49097	85.73594
16400.00000	86.17235	-414.00417	86.17235
16450.00000	86.17935	-417.18382	86.17935
16500.00000	86.46498	-419.14416	86.46498
16550.00000	86.73825	-422.27753	86.73825
16600.00000	86.92623	-424.28467	86.92623
16650.00000	87.08634	-427.09083	87.08634
16700.00000	87.40898	-429.04082	87.40898
16750.00000	87.49777	-432.61506	87.49777
16800.00000	87.48240	-434.96762	87.48240
16850.00000	88.03011	-437.99866	88.03011
16900.00000	88.09331	-440.47678	88.09331
16950.00000	88.26682	-441.77670	88.26682
17000.00000	88.32518	-444.86432	88.32518
17050.00000	88.46481	-446.36083	88.46481
17100.00000	88.49693	-448.32987	88.49693
17150.00000	88.98571	-451.72744	88.98571
17200.00000	89.20742	-453.23488	89.20742
17250.00000	89.31674	-456.22827	89.31674
17300.00000	89.69598	-458.54594	89.69598
17350.00000	89.60592	-460.37421	89.60592
17400.00000	89.97060	-463.78589	89.97060
17450.00000	90.03025	-467.28211	90.03025
17500.00000	90.30153	-469.56936	90.30153
17550.00000	90.40285	-471.91213	90.40285
17600.00000	90.77930	-473.25226	90.77930
17650.00000	90.88613	-477.66659	90.88613
17700.00000	90.96994	-481.42574	90.96994
17750.00000	91.23903	-483.01473	91.23903
17800.00000	91.25891	-487.28962	91.25891
17850.00000	91.45726	-489.33405	91.45726
17900.00000	91.61507	-492.05966	91.61507
17950.00000	91.81765	-495.67126	91.81765
18000.00000	91.94844	-498.81270	91.94844
18050.00000	92.15387	-501.75139	92.15387
18100.00000	92.11483	-505.13025	92.11483
18150.00000	92.30283	-507.85071	92.30283
18200.00000	92.34303	-511.36463	92.34303
18250.00000	92.45382	-513.89113	92.45382
18300.00000	92.61816	-517.25990	92.61816
18350.00000	92.60348	-519.42987	92.60348
18400.00000	92.71616	-523.63107	92.71616
18450.00000	92.79980	-526.98975	92.79980
18500.00000	92.79076	-529.56264	92.79076
18550.00000	92.88175	-532.80811	92.88175
18600.00000	93.04051	-535.90893	93.04051
18650.00000	92.92239	-539.43871	92.92239
18700.00000	93.00752	-542.63960	93.00752
18750.00000	93.16390	-545.45805	93.16390
18800.00000	93.23720	-548.05304	93.23720
18850.00000	93.17067	-551.71125	93.17067
18900.00000	93.22300	-554.41512	93.22300
18950.00000	93.35313	-558.40265	93.35313
19000.00000	93.19705	-561.04364	93.19705
19050.00000	93.28193	-564.56587	93.28193
19100.00000	93.29438	-567.40035	93.29438
19150.00000	93.45285	-570.54206	93.45285
19200.00000	93.44325	-573.27989	93.44325
19250.00000	93.34806	-577.48288	93.34806
19300.00000	93.36992	-580.39524	93.36992
19350.00000	93.31357	-583.59607	93.31357
19400.00000	93.31319	-587.06114	93.31319
19450.00000	93.36116	-589.16699	93.36116
19500.00000	93.24497	-593.18672	93.24497
19550.00000	93.17133	-596.75488	93.17133
19600.00000	93.14403	-600.13732	93.14403
19650.00000	93.12871	-602.84305	93.12871
19700.00000	92.94703	-606.37545	92.94703
19750.00000	92.82510	-608.98073	92.82510
19800.00000	92.87592	-612.65616	92.87592
19850.00000	92.76359	-615.35053	92.76359
19900.00000	92.63269	-619.83321	92.63269
19950.00000	92.51408	-622.38760	92.51408
20000.00000	92.39499	-625.55357	92.39499
20050.00000	92.19872	-628.41987	92.19872
20100.00000	92.06452	-631.34120	92.06452
20150.00000	91.96371	-633.06345	91.96371
20200.00000	91.77324	-637.07666	91.77324
20250.00000	91.54518	-639.18454	91.54518
20300.00000	91.22639	-641.88080	91.22639
20350.00000	91.27723	-644.64292	91.27723
20400.00000	90.95044	-646.74025	90.95044
20450.00000	90.71626	-648.77057	90.71626
20500.00000	90.48071	-651.23747	90.48071
20550.00000	90.06316	-652.82382	90.06316
20600.00000	89.94404	-654.13268	89.94404
20650.00000	89.79161	-655.69850	89.79161
20700.00000	89.56474	-657.10444	89.56474
20750.00000	89.38145	-658.09381	89.38145
20800.00000	89.20092	-658.83133	89.20092
20850.00000	89.10783	-660.04125	89.10783
20900.00000	89.01080	-660.33503	89.01080
20950.00000	88.82030	-660.38205	88.82030
21000.00000	88.79945	-660.80383	88.79945
21050.00000	88.98156	-660.68565	88.98156
21100.00000	88.98459	-660.74496	88.98459
21150.00000	89.11703	-661.73811	89.11703
21200.00000	89.30321	-661.88487	89.30321
21250.00000	89.46954	-663.69225	89.46954
21300.00000	89.73664	-664.09566	89.73664
21350.00000	89.95385	-665.77911	89.95385
21400.00000	90.11736	-667.52430	90.11736
21450.00000	90.42299	-669.96026	90.42299
21500.00000	90.54462	-672.00375	90.54462
21550.00000	90.64906	-674.03921	90.64906
21600.00000	90.80814	-676.86550	90.80814
21650.00000	90.98242	-679.62086	90.98242
21700.00000	91.07472	-681.70536	91.07472
21750.00000	91.11202	-684.78390	91.11202
21800.00000	91.19141	-687.68686	91.19141
21850.00000	91.26335	-690.02404	91.26335
21900.00000	91.20727	-692.53453	91.20727
21950.00000	91.30957	-694.84725	91.30957
22000.00000	91.37069	-697.52108	91.37069
22050.00000	91.38217	-699.52092	91.38217
22100.00000	91.37253	-701.76134	91.37253
22150.00000	91.30835	-704.07012	91.30835
22200.00000	91.46877	-707.03135	91.46877
22250.00000	91.34249	-708.82819	91.34249
22300.00000	91.27749	-711.33615	91.27749
22350.00000	91.38246	-713.61553	91.38246
22400.00000	91.43278	-716.17543	91.43278
22450.00000	91.29978	-718.06061	91.29978
22500.00000	91.10109	-717.79617	91.10109
22550.00000	91.20988	-720.85806	91.20988
22600.00000	91.22425	-723.64324	91.22425
22650.00000	91.02287	-724.22036	91.02287
22700.00000	91.18016	-726.57403	91.18016
22750.00000	91.12613	-727.41980	91.12613
22800.00000	91.31203	-730.53844	91.31203
22850.00000	91.11401	-733.67813	91.11401
22900.00000	91.33424	-732.92695	91.33424
22950.00000	91.28785	-735.79672	91.28785
23000.00000	91.33967	-735.16890	91.33967
23050.00000	91.25803	-738.07100	91.25803
23100.00000	91.48816	-739.61930	91.48816
23150.00000	91.21768	-739.43593	91.21768
23200.00000	91.47818	-742.94704	91.47818
23250.00000	91.30096	-745.82108	91.30096
23300.00000	91.72200	-747.76459	91.72200
23350.00000	91.43392	-749.04789	91.43392
23400.00000	91.55411	-751.24584	91.55411
23450.00000	91.67784	-752.81511	91.67784
