---ACOUSTIC CALIBRATION---
Filename: C:\Data\AZH DATA\AZH61\RightPrimary.calib
Date: 8/27/2019 3:08:43 PM
Format: 4
Probe Tube Correction File: C:\Data\Probe Tube Calibrations\50_ProbeTube.calib
Experiment VIs: 850
EPL_CFTS.exe V12.0.1 (2012)
DAQmx V9.6

Attenuation (dB): 40.000000
Min Freq (Hz): 50.000000
Max Freq (Hz): 49950.000000
Freq Step (Hz): 50.000000
Sample Rate (Hz): 100000.000000
[Smoothing]
Method=None
MA.Iterations=0
MA.Length=0
Loess.Length=0
Loess.Type=Linear
Loess.Robust=FALSE


Freq(Hz)	Mag(dB)	Phase(deg)	Unsmoothed(dB)

50.00000	100.57525	517.94807	100.57525
100.00000	76.22290	667.45303	76.22290
150.00000	73.90945	789.75389	73.90945
200.00000	83.71602	774.58709	83.71602
250.00000	88.96911	806.88407	88.96911
300.00000	80.18547	743.31083	80.18547
350.00000	81.93969	740.69009	81.93969
400.00000	83.86116	749.23638	83.86116
450.00000	88.40368	727.28735	88.40368
500.00000	77.40541	786.20722	77.40541
550.00000	92.18519	729.58066	92.18519
600.00000	93.90246	717.77165	93.90246
650.00000	96.81642	713.43775	96.81642
700.00000	99.23805	691.61383	99.23805
750.00000	101.24024	675.02208	101.24024
800.00000	101.58780	650.04739	101.58780
850.00000	100.83929	636.84653	100.83929
900.00000	99.57600	617.86292	99.57600
950.00000	97.49199	617.37175	97.49199
1000.00000	96.32903	616.78207	96.32903
1050.00000	93.56593	633.32981	93.56593
1100.00000	95.58956	653.75344	95.58956
1150.00000	98.79622	659.51290	98.79622
1200.00000	101.78852	656.76756	101.78852
1250.00000	103.22520	649.45061	103.22520
1300.00000	105.03607	644.17250	105.03607
1350.00000	106.01573	633.96328	106.01573
1400.00000	107.01799	627.50602	107.01799
1450.00000	108.05388	620.56734	108.05388
1500.00000	109.09671	614.26006	109.09671
1550.00000	109.79494	605.01455	109.79494
1600.00000	111.22584	595.82116	111.22584
1650.00000	112.31295	579.58333	112.31295
1700.00000	111.05595	569.38972	111.05595
1750.00000	110.83163	563.29223	110.83163
1800.00000	110.51803	558.69451	110.51803
1850.00000	110.63285	557.83720	110.63285
1900.00000	111.73823	553.72084	111.73823
1950.00000	112.49718	540.77548	112.49718
2000.00000	111.59047	528.45649	111.59047
2050.00000	110.24788	533.10718	110.24788
2100.00000	112.05573	532.61953	112.05573
2150.00000	112.69494	521.37142	112.69494
2200.00000	112.68051	511.68065	112.68051
2250.00000	112.05323	504.48577	112.05323
2300.00000	112.18373	498.86792	112.18373
2350.00000	111.90387	492.51628	111.90387
2400.00000	111.60489	487.17317	111.60489
2450.00000	111.34265	480.42213	111.34265
2500.00000	111.02819	475.36161	111.02819
2550.00000	110.53858	469.79548	110.53858
2600.00000	109.94797	465.33944	109.94797
2650.00000	109.49761	461.73212	109.49761
2700.00000	108.94553	458.28327	108.94553
2750.00000	108.44068	454.92201	108.44068
2800.00000	107.85898	452.19347	107.85898
2850.00000	107.21242	450.00395	107.21242
2900.00000	106.56015	447.60983	106.56015
2950.00000	105.94425	447.15443	105.94425
3000.00000	105.23711	445.70815	105.23711
3050.00000	104.41000	445.28501	104.41000
3100.00000	103.54951	446.43146	103.54951
3150.00000	102.41009	447.65298	102.41009
3200.00000	101.14159	454.90876	101.14159
3250.00000	100.54787	463.75149	100.54787
3300.00000	100.13888	476.70620	100.13888
3350.00000	100.51494	493.24927	100.51494
3400.00000	102.36382	508.31027	102.36382
3450.00000	104.93189	515.41406	104.93189
3500.00000	107.44123	516.39848	107.44123
3550.00000	109.42584	512.81764	109.42584
3600.00000	111.16350	509.25771	111.16350
3650.00000	112.62840	503.85890	112.62840
3700.00000	113.94729	498.79433	113.94729
3750.00000	115.27742	493.09335	115.27742
3800.00000	116.44446	486.43409	116.44446
3850.00000	117.44987	479.18966	117.44987
3900.00000	118.35325	472.34987	118.35325
3950.00000	119.25064	465.16412	119.25064
4000.00000	120.06476	457.69434	120.06476
4050.00000	120.83032	450.27020	120.83032
4100.00000	121.64369	442.74452	121.64369
4150.00000	122.61621	434.25555	122.61621
4200.00000	123.30285	424.20181	123.30285
4250.00000	123.94373	413.13541	123.94373
4300.00000	124.36070	401.14810	124.36070
4350.00000	124.43618	388.76457	124.43618
4400.00000	124.27333	377.31309	124.27333
4450.00000	123.93637	366.79333	123.93637
4500.00000	123.52910	357.29218	123.52910
4550.00000	123.08966	348.43852	123.08966
4600.00000	122.60525	340.14821	122.60525
4650.00000	122.15904	332.28063	122.15904
4700.00000	121.66147	324.00242	121.66147
4750.00000	121.03776	315.53082	121.03776
4800.00000	120.21107	307.00222	120.21107
4850.00000	119.11091	299.43100	119.11091
4900.00000	117.79322	293.79582	117.79322
4950.00000	116.42342	290.75979	116.42342
5000.00000	115.19448	290.05977	115.19448
5050.00000	114.14314	290.46010	114.14314
5100.00000	112.97850	293.88650	112.97850
5150.00000	112.91187	299.46049	112.91187
5200.00000	112.15208	303.61906	112.15208
5250.00000	113.50712	316.09233	113.50712
5300.00000	115.83743	308.05948	115.83743
5350.00000	116.02013	295.40078	116.02013
5400.00000	115.49944	287.95504	115.49944
5450.00000	114.98077	283.66472	114.98077
5500.00000	114.57043	280.38979	114.57043
5550.00000	114.27129	277.80735	114.27129
5600.00000	114.01410	275.28754	114.01410
5650.00000	113.81381	273.02660	113.81381
5700.00000	113.60035	270.45768	113.60035
5750.00000	113.45205	268.10843	113.45205
5800.00000	113.29149	265.71720	113.29149
5850.00000	113.17388	263.33959	113.17388
5900.00000	113.04604	261.05736	113.04604
5950.00000	112.92022	258.82924	112.92022
6000.00000	112.81921	256.62792	112.81921
6050.00000	112.72896	254.51135	112.72896
6100.00000	112.68815	252.32667	112.68815
6150.00000	112.63515	249.80017	112.63515
6200.00000	112.61196	247.31879	112.61196
6250.00000	112.57559	244.56527	112.57559
6300.00000	112.54317	241.71717	112.54317
6350.00000	112.45321	238.86694	112.45321
6400.00000	112.37202	236.21344	112.37202
6450.00000	112.31749	233.55916	112.31749
6500.00000	112.22303	230.63201	112.22303
6550.00000	112.16734	228.02632	112.16734
6600.00000	112.07938	225.47402	112.07938
6650.00000	112.01591	223.02487	112.01591
6700.00000	111.95180	220.06490	111.95180
6750.00000	111.93267	217.47065	111.93267
6800.00000	111.88193	215.08277	111.88193
6850.00000	111.82553	212.17610	111.82553
6900.00000	111.81515	209.54778	111.81515
6950.00000	111.77249	206.88542	111.77249
7000.00000	111.76166	204.15733	111.76166
7050.00000	111.75233	201.27967	111.75233
7100.00000	111.74496	198.13222	111.74496
7150.00000	111.70366	195.28178	111.70366
7200.00000	111.70623	192.01568	111.70623
7250.00000	111.65711	188.99918	111.65711
7300.00000	111.66395	185.43546	111.66395
7350.00000	111.59060	182.41985	111.59060
7400.00000	111.52772	178.99062	111.52772
7450.00000	111.48870	175.52182	111.48870
7500.00000	111.42355	172.02655	111.42355
7550.00000	111.34884	168.51523	111.34884
7600.00000	111.22994	164.99984	111.22994
7650.00000	111.13807	161.47881	111.13807
7700.00000	111.05322	158.11435	111.05322
7750.00000	110.90624	154.39126	110.90624
7800.00000	110.75249	150.77641	110.75249
7850.00000	110.59191	147.37243	110.59191
7900.00000	110.44306	143.83714	110.44306
7950.00000	110.28290	140.26915	110.28290
8000.00000	110.10129	136.89131	110.10129
8050.00000	109.90805	133.03514	109.90805
8100.00000	109.71832	130.01855	109.71832
8150.00000	109.44463	126.73406	109.44463
8200.00000	109.21429	123.67080	109.21429
8250.00000	108.95045	120.26776	108.95045
8300.00000	108.68250	117.14306	108.68250
8350.00000	108.39118	114.30570	108.39118
8400.00000	108.08741	110.94390	108.08741
8450.00000	107.71885	107.74761	107.71885
8500.00000	107.40673	104.67713	107.40673
8550.00000	107.11343	102.03128	107.11343
8600.00000	106.78134	98.87403	106.78134
8650.00000	106.46197	96.22114	106.46197
8700.00000	106.17725	93.22779	106.17725
8750.00000	105.80566	91.59015	105.80566
8800.00000	105.55030	89.15386	105.55030
8850.00000	105.22550	87.17630	105.22550
8900.00000	104.89260	85.47035	104.89260
8950.00000	104.58315	83.43057	104.58315
9000.00000	104.19328	81.64413	104.19328
9050.00000	103.85286	79.36784	103.85286
9100.00000	103.51720	77.41144	103.51720
9150.00000	103.21492	75.39672	103.21492
9200.00000	102.96333	73.04867	102.96333
9250.00000	102.71243	71.14310	102.71243
9300.00000	102.53165	69.04652	102.53165
9350.00000	102.39205	67.44961	102.39205
9400.00000	102.15101	66.29128	102.15101
9450.00000	102.00224	65.36879	102.00224
9500.00000	101.90353	65.64336	101.90353
9550.00000	101.84467	65.48549	101.84467
9600.00000	101.81190	64.11012	101.81190
9650.00000	101.62414	62.51900	101.62414
9700.00000	101.39175	61.49917	101.39175
9750.00000	101.23763	59.25296	101.23763
9800.00000	101.04419	57.71036	101.04419
9850.00000	100.93757	56.09213	100.93757
9900.00000	100.71215	54.17239	100.71215
9950.00000	100.63022	52.77318	100.63022
10000.00000	100.60063	50.78956	100.60063
10050.00000	100.52085	49.39084	100.52085
10100.00000	100.39568	48.17321	100.39568
10150.00000	100.20140	46.53608	100.20140
10200.00000	100.05621	44.97233	100.05621
10250.00000	99.82171	43.01733	99.82171
10300.00000	99.73259	40.85757	99.73259
10350.00000	99.53258	38.87687	99.53258
10400.00000	99.33414	36.34411	99.33414
10450.00000	99.30445	33.71264	99.30445
10500.00000	99.30559	31.37740	99.30559
10550.00000	99.27878	29.02913	99.27878
10600.00000	99.22871	27.30996	99.22871
10650.00000	99.11754	25.84681	99.11754
10700.00000	99.04133	23.25274	99.04133
10750.00000	98.98607	21.32150	98.98607
10800.00000	98.75915	19.50326	98.75915
10850.00000	98.58216	16.44133	98.58216
10900.00000	98.41116	14.31300	98.41116
10950.00000	98.25701	12.03185	98.25701
11000.00000	98.11916	 9.54872	98.11916
11050.00000	97.82120	 7.42863	97.82120
11100.00000	97.61096	 4.86711	97.61096
11150.00000	97.30780	 2.95823	97.30780
11200.00000	97.14559	 1.22401	97.14559
11250.00000	96.80287	-0.94770	96.80287
11300.00000	96.45749	-3.01389	96.45749
11350.00000	96.15541	-4.56668	96.15541
11400.00000	95.77395	-6.40627	95.77395
11450.00000	95.49998	-8.62778	95.49998
11500.00000	95.34724	-9.57155	95.34724
11550.00000	95.00684	-10.91400	95.00684
11600.00000	94.85920	-12.73435	94.85920
11650.00000	94.57919	-12.89716	94.57919
11700.00000	94.41105	-13.65836	94.41105
11750.00000	94.26968	-14.66614	94.26968
11800.00000	94.07235	-16.06449	94.07235
11850.00000	93.93009	-16.01389	93.93009
11900.00000	93.60298	-17.34375	93.60298
11950.00000	93.47609	-17.93034	93.47609
12000.00000	93.26178	-18.40770	93.26178
12050.00000	93.00290	-19.23602	93.00290
12100.00000	92.91502	-20.98084	92.91502
12150.00000	92.81252	-22.38219	92.81252
12200.00000	92.75371	-23.75301	92.75371
12250.00000	92.62335	-24.47621	92.62335
12300.00000	93.66407	-25.84784	93.66407
12350.00000	92.43108	-26.71468	92.43108
12400.00000	92.36398	-26.84333	92.36398
12450.00000	92.13579	-28.24302	92.13579
12500.00000	91.95606	-30.04238	91.95606
12550.00000	91.84241	-31.44509	91.84241
12600.00000	91.62208	-33.31021	91.62208
12650.00000	91.69850	-34.88196	91.69850
12700.00000	91.50919	-36.32065	91.50919
12750.00000	91.25311	-38.34527	91.25311
12800.00000	91.07548	-39.21588	91.07548
12850.00000	90.63268	-40.22313	90.63268
12900.00000	90.42990	-42.16526	90.42990
12950.00000	90.22437	-43.06104	90.22437
13000.00000	89.90241	-44.61075	89.90241
13050.00000	89.71725	-44.67398	89.71725
13100.00000	89.34190	-46.88200	89.34190
13150.00000	89.21834	-48.36410	89.21834
13200.00000	88.87128	-46.68745	88.87128
13250.00000	88.70063	-46.71577	88.70063
13300.00000	88.37672	-45.50187	88.37672
13350.00000	88.11996	-46.02855	88.11996
13400.00000	87.90028	-46.17552	87.90028
13450.00000	87.55137	-45.53321	87.55137
13500.00000	87.68312	-43.99932	87.68312
13550.00000	87.28127	-44.27612	87.28127
13600.00000	87.15070	-43.64887	87.15070
13650.00000	87.00350	-42.21882	87.00350
13700.00000	86.80612	-42.65877	86.80612
13750.00000	86.66910	-41.73325	86.66910
13800.00000	86.43200	-42.98783	86.43200
13850.00000	86.42548	-43.75034	86.42548
13900.00000	86.40168	-43.01346	86.40168
13950.00000	86.36202	-42.36366	86.36202
14000.00000	86.43424	-40.43956	86.43424
14050.00000	86.49310	-39.51234	86.49310
14100.00000	86.07263	-38.07780	86.07263
14150.00000	86.28280	-37.57272	86.28280
14200.00000	86.47025	-37.47614	86.47025
14250.00000	86.75612	-34.94481	86.75612
14300.00000	86.81334	-34.55353	86.81334
14350.00000	86.66345	-32.32784	86.66345
14400.00000	86.41461	-32.24456	86.41461
14450.00000	86.49858	-29.46180	86.49858
14500.00000	86.40656	-30.94960	86.40656
14550.00000	86.71899	-29.97751	86.71899
14600.00000	86.80141	-29.25350	86.80141
14650.00000	87.21670	-26.72223	87.21670
14700.00000	87.25759	-29.39616	87.25759
14750.00000	87.50361	-27.50123	87.50361
14800.00000	87.59849	-25.76761	87.59849
14850.00000	87.91698	-24.74268	87.91698
14900.00000	88.33536	-24.58690	88.33536
14950.00000	88.59257	-24.65746	88.59257
15000.00000	88.97934	-24.46092	88.97934
15050.00000	89.18086	-21.99521	89.18086
15100.00000	89.48410	-20.75566	89.48410
15150.00000	89.87486	-21.40196	89.87486
15200.00000	90.06933	-20.88321	90.06933
15250.00000	90.38890	-21.53767	90.38890
15300.00000	90.97194	-21.58019	90.97194
15350.00000	91.40820	-22.30097	91.40820
15400.00000	91.57862	-21.32887	91.57862
15450.00000	91.91102	-21.79713	91.91102
15500.00000	92.50039	-22.24325	92.50039
15550.00000	92.91628	-23.33367	92.91628
15600.00000	93.36579	-24.49627	93.36579
15650.00000	93.93363	-23.73392	93.93363
15700.00000	94.30277	-26.14381	94.30277
15750.00000	94.82292	-26.93459	94.82292
15800.00000	95.28934	-27.34564	95.28934
15850.00000	95.69440	-28.65506	95.69440
15900.00000	96.05397	-31.15439	96.05397
15950.00000	96.53666	-33.16931	96.53666
16000.00000	96.99367	-34.53293	96.99367
16050.00000	97.55758	-36.47575	97.55758
16100.00000	97.80281	-38.81268	97.80281
16150.00000	98.16268	-40.63746	98.16268
16200.00000	98.59775	-44.04366	98.59775
16250.00000	99.01254	-46.06323	99.01254
16300.00000	99.58235	-48.71537	99.58235
16350.00000	99.99968	-51.36709	99.99968
16400.00000	100.33251	-53.77143	100.33251
16450.00000	100.63151	-56.27742	100.63151
16500.00000	100.95464	-59.28514	100.95464
16550.00000	101.33154	-62.93764	101.33154
16600.00000	101.73264	-66.08726	101.73264
16650.00000	102.00231	-68.90377	102.00231
16700.00000	102.32676	-71.57156	102.32676
16750.00000	102.51835	-75.46528	102.51835
16800.00000	102.80727	-78.98659	102.80727
16850.00000	103.12887	-82.45784	103.12887
16900.00000	103.36785	-85.77039	103.36785
16950.00000	103.59828	-89.10189	103.59828
17000.00000	103.70262	-92.67394	103.70262
17050.00000	103.98772	-95.32099	103.98772
17100.00000	104.06009	-97.83456	104.06009
17150.00000	104.37037	-101.98011	104.37037
17200.00000	104.53313	-105.10539	104.53313
17250.00000	104.62881	-108.93029	104.62881
17300.00000	104.87093	-112.37372	104.87093
17350.00000	104.87614	-115.21055	104.87614
17400.00000	105.11068	-118.57711	105.11068
17450.00000	105.17408	-122.31720	105.17408
17500.00000	105.31783	-125.36760	105.31783
17550.00000	105.47412	-128.85874	105.47412
17600.00000	105.70106	-131.72161	105.70106
17650.00000	105.74743	-135.83023	105.74743
17700.00000	105.85538	-139.45827	105.85538
17750.00000	106.07678	-142.22730	106.07678
17800.00000	106.06068	-146.29692	106.06068
17850.00000	106.17719	-149.22154	106.17719
17900.00000	106.24080	-152.98199	106.24080
17950.00000	106.40075	-156.50897	106.40075
18000.00000	106.42211	-160.74549	106.42211
18050.00000	106.61184	-163.69304	106.61184
18100.00000	106.57627	-167.93487	106.57627
18150.00000	106.60658	-170.75320	106.60658
18200.00000	106.54690	-174.96861	106.54690
18250.00000	106.62501	-177.75740	106.62501
18300.00000	106.68461	-181.29275	106.68461
18350.00000	106.66411	-184.70751	106.66411
18400.00000	106.58296	-188.38758	106.58296
18450.00000	106.53411	-192.81900	106.53411
18500.00000	106.51317	-196.19187	106.51317
18550.00000	106.47384	-198.97723	106.47384
18600.00000	106.51599	-202.73968	106.51599
18650.00000	106.29971	-205.73147	106.29971
18700.00000	106.23891	-209.16288	106.23891
18750.00000	106.22423	-212.24931	106.22423
18800.00000	106.27921	-214.72163	106.27921
18850.00000	106.07791	-218.11663	106.07791
18900.00000	105.99331	-220.79648	105.99331
18950.00000	105.95547	-224.25299	105.95547
19000.00000	105.72963	-226.74123	105.72963
19050.00000	105.80364	-229.51280	105.80364
19100.00000	105.67987	-232.21953	105.67987
19150.00000	105.73766	-234.81372	105.73766
19200.00000	105.67765	-237.09458	105.67765
19250.00000	105.57691	-240.85280	105.57691
19300.00000	105.45507	-242.84149	105.45507
19350.00000	105.43067	-245.55466	105.43067
19400.00000	105.36059	-248.15290	105.36059
19450.00000	105.39549	-250.31995	105.39549
19500.00000	105.26859	-253.82367	105.26859
19550.00000	105.24371	-256.29503	105.24371
19600.00000	105.27047	-259.51164	105.27047
19650.00000	105.16279	-261.70191	105.16279
19700.00000	105.02403	-264.62884	105.02403
19750.00000	104.96216	-266.64404	104.96216
19800.00000	104.98741	-270.21456	104.98741
19850.00000	104.94229	-272.68225	104.94229
19900.00000	104.81547	-276.04652	104.81547
19950.00000	104.73312	-278.60045	104.73312
20000.00000	104.67022	-281.42475	104.67022
20050.00000	104.59505	-284.01580	104.59505
20100.00000	104.43185	-286.86616	104.43185
20150.00000	104.38513	-288.62581	104.38513
20200.00000	104.24305	-292.01560	104.24305
20250.00000	104.07422	-294.50387	104.07422
20300.00000	103.88977	-296.95339	103.88977
20350.00000	103.82222	-299.67345	103.82222
20400.00000	103.64140	-301.22615	103.64140
20450.00000	103.40197	-303.62627	103.40197
20500.00000	103.32198	-306.14875	103.32198
20550.00000	102.94781	-307.48142	102.94781
20600.00000	102.86267	-309.16503	102.86267
20650.00000	102.71602	-310.89848	102.71602
20700.00000	102.49025	-312.32719	102.49025
20750.00000	102.40292	-313.71130	102.40292
20800.00000	102.22043	-314.68703	102.22043
20850.00000	102.15399	-315.91547	102.15399
20900.00000	102.00499	-316.78285	102.00499
20950.00000	101.90114	-317.08610	101.90114
21000.00000	101.86937	-317.78085	101.86937
21050.00000	101.99499	-318.08181	101.99499
21100.00000	102.00539	-318.56919	102.00539
21150.00000	102.14090	-319.49107	102.14090
21200.00000	102.28818	-320.10607	102.28818
21250.00000	102.42588	-322.25091	102.42588
21300.00000	102.64153	-323.20911	102.64153
21350.00000	102.79371	-324.61965	102.79371
21400.00000	102.94284	-326.89348	102.94284
21450.00000	103.12086	-328.99947	103.12086
21500.00000	103.26679	-331.64625	103.26679
21550.00000	103.27903	-333.79659	103.27903
21600.00000	103.47106	-336.50515	103.47106
21650.00000	103.52189	-339.19756	103.52189
21700.00000	103.53001	-341.52247	103.53001
21750.00000	103.56507	-344.25551	103.56507
21800.00000	103.59453	-347.03199	103.59453
21850.00000	103.51063	-349.42521	103.51063
21900.00000	103.53855	-352.01197	103.53855
21950.00000	103.50299	-353.99373	103.50299
22000.00000	103.52635	-356.33890	103.52635
22050.00000	103.44663	-358.24762	103.44663
22100.00000	103.40149	-360.55514	103.40149
22150.00000	103.34108	-362.48918	103.34108
22200.00000	103.37928	-364.77582	103.37928
22250.00000	103.30232	-366.18541	103.30232
22300.00000	103.15263	-368.42099	103.15263
22350.00000	103.28026	-370.50320	103.28026
22400.00000	103.28317	-372.70287	103.28317
22450.00000	103.18683	-374.57408	103.18683
22500.00000	103.10432	-375.24563	103.10432
22550.00000	103.12212	-377.69713	103.12212
22600.00000	103.08812	-380.31690	103.08812
22650.00000	103.06448	-382.34991	103.06448
22700.00000	103.05541	-383.89492	103.05541
22750.00000	103.01989	-384.07827	103.01989
22800.00000	103.06265	-388.04856	103.06265
22850.00000	103.07534	-390.75223	103.07534
22900.00000	103.12815	-390.91925	103.12815
22950.00000	103.10697	-392.96049	103.10697
23000.00000	103.07770	-394.47960	103.07770
23050.00000	103.05460	-396.83435	103.05460
23100.00000	103.11371	-398.05729	103.11371
