---ACOUSTIC CALIBRATION---
Filename: C:\Data\AZH DATA\AZH61\RightPrimary.calib
Date: 8/27/2019 3:32:06 PM
Format: 4
Probe Tube Correction File: C:\Data\Probe Tube Calibrations\50_ProbeTube.calib
Experiment VIs: 850
EPL_CFTS.exe V12.0.1 (2012)
DAQmx V9.6

Attenuation (dB): 40.000000
Min Freq (Hz): 50.000000
Max Freq (Hz): 49950.000000
Freq Step (Hz): 50.000000
Sample Rate (Hz): 100000.000000
[Smoothing]
Method=None
MA.Iterations=0
MA.Length=0
Loess.Length=0
Loess.Type=Linear
Loess.Robust=FALSE


Freq(Hz)	Mag(dB)	Phase(deg)	Unsmoothed(dB)

50.00000	99.30287	417.84491	99.30287
100.00000	70.89334	477.17256	70.89334
150.00000	80.27384	510.46336	80.27384
200.00000	81.70545	471.42431	81.70545
250.00000	90.66128	448.29928	90.66128
300.00000	89.24793	394.35871	89.24793
350.00000	85.22066	373.70199	85.22066
400.00000	86.55665	361.55340	86.55665
450.00000	87.24149	350.07703	87.24149
500.00000	89.59000	362.09227	89.59000
550.00000	92.76256	359.82186	92.76256
600.00000	95.55423	351.20747	95.55423
650.00000	98.03581	342.77061	98.03581
700.00000	100.56137	327.68999	100.56137
750.00000	102.45623	310.75060	102.45623
800.00000	103.28733	287.27205	103.28733
850.00000	102.75339	271.50077	102.75339
900.00000	101.19612	255.58569	101.19612
950.00000	99.48443	253.15418	99.48443
1000.00000	98.03867	254.10552	98.03867
1050.00000	96.09356	268.68693	96.09356
1100.00000	97.83033	290.03016	97.83033
1150.00000	100.64839	295.14147	100.64839
1200.00000	103.35852	294.14160	103.35852
1250.00000	105.05239	286.42716	105.05239
1300.00000	106.75909	281.35360	106.75909
1350.00000	108.05321	272.10119	108.05321
1400.00000	108.98952	265.49578	108.98952
1450.00000	110.03862	258.63826	110.03862
1500.00000	111.20139	251.17110	111.20139
1550.00000	112.01577	242.94494	112.01577
1600.00000	113.41129	233.44720	113.41129
1650.00000	114.42975	216.66477	114.42975
1700.00000	113.22337	206.80952	113.22337
1750.00000	113.00456	201.16878	113.00456
1800.00000	112.76918	196.49611	112.76918
1850.00000	112.96082	195.44717	112.96082
1900.00000	114.10127	191.11087	114.10127
1950.00000	114.78627	177.78625	114.78627
2000.00000	113.82047	165.69159	113.82047
2050.00000	112.50878	169.57839	112.50878
2100.00000	114.27153	169.56408	114.27153
2150.00000	114.96980	158.66302	114.96980
2200.00000	114.86229	148.61934	114.86229
2250.00000	114.27581	141.54876	114.27581
2300.00000	114.37538	135.96871	114.37538
2350.00000	114.09792	129.60933	114.09792
2400.00000	113.81820	124.07726	113.81820
2450.00000	113.52231	117.50036	113.52231
2500.00000	113.12252	112.54041	113.12252
2550.00000	112.66955	107.21535	112.66955
2600.00000	112.11337	102.90366	112.11337
2650.00000	111.62435	99.17938	111.62435
2700.00000	111.09333	95.37413	111.09333
2750.00000	110.52044	92.41626	110.52044
2800.00000	109.92276	89.81274	109.92276
2850.00000	109.32482	88.18299	109.32482
2900.00000	108.69149	86.09847	108.69149
2950.00000	107.97629	85.10323	107.97629
3000.00000	107.28569	84.12182	107.28569
3050.00000	106.36238	84.27145	106.36238
3100.00000	105.49532	86.50312	105.49532
3150.00000	104.25790	89.98103	104.25790
3200.00000	103.36222	98.77313	103.36222
3250.00000	103.07909	110.98830	103.07909
3300.00000	103.35345	123.16170	103.35345
3350.00000	104.36468	136.27473	104.36468
3400.00000	106.31416	147.34995	106.31416
3450.00000	108.68095	151.77490	108.68095
3500.00000	111.01383	151.04949	111.01383
3550.00000	112.87620	146.68811	112.87620
3600.00000	114.51688	142.21528	114.51688
3650.00000	115.88780	136.52430	115.88780
3700.00000	117.14360	130.66888	117.14360
3750.00000	118.33238	124.15408	118.33238
3800.00000	119.37715	116.74512	119.37715
3850.00000	120.21029	109.38213	120.21029
3900.00000	120.99624	102.54338	120.99624
3950.00000	121.77923	95.31499	121.77923
4000.00000	122.49834	87.95353	122.49834
4050.00000	123.19089	80.65490	123.19089
4100.00000	123.91667	73.07778	123.91667
4150.00000	124.81242	64.57807	124.81242
4200.00000	125.40037	54.52609	125.40037
4250.00000	125.91852	43.67350	125.91852
4300.00000	126.20924	32.14444	126.20924
4350.00000	126.21598	20.53185	126.21598
4400.00000	126.01354	 9.83513	126.01354
4450.00000	125.68997	-0.04209	125.68997
4500.00000	125.29815	-9.05678	125.29815
4550.00000	124.87251	-17.53624	124.87251
4600.00000	124.40359	-25.46456	124.40359
4650.00000	123.98197	-33.01659	123.98197
4700.00000	123.51673	-40.99203	123.51673
4750.00000	122.93311	-49.18389	122.93311
4800.00000	122.16685	-57.49033	122.16685
4850.00000	121.13425	-65.04201	121.13425
4900.00000	119.88825	-70.82161	119.88825
4950.00000	118.56306	-74.11084	118.56306
5000.00000	117.33964	-75.01966	117.33964
5050.00000	116.27918	-74.94885	116.27918
5100.00000	115.14251	-71.75785	115.14251
5150.00000	115.01654	-65.93833	115.01654
5200.00000	114.45502	-62.15408	114.45502
5250.00000	115.80474	-51.94857	115.80474
5300.00000	117.76525	-60.57264	117.76525
5350.00000	117.75898	-71.97365	117.75898
5400.00000	117.20477	-78.43723	117.20477
5450.00000	116.70777	-82.06982	116.70777
5500.00000	116.33240	-84.92940	116.33240
5550.00000	116.04849	-87.27202	116.04849
5600.00000	115.81699	-89.52792	115.81699
5650.00000	115.63982	-91.72605	115.63982
5700.00000	115.47001	-94.12964	115.47001
5750.00000	115.34807	-96.31059	115.34807
5800.00000	115.20885	-98.64497	115.20885
5850.00000	115.08433	-100.92830	115.08433
5900.00000	114.97392	-103.13161	114.97392
5950.00000	114.89369	-105.26315	114.89369
6000.00000	114.83701	-107.31612	114.83701
6050.00000	114.80068	-109.50492	114.80068
6100.00000	114.80572	-111.91793	114.80572
6150.00000	114.78897	-114.50509	114.78897
6200.00000	114.76425	-117.22135	114.76425
6250.00000	114.73194	-120.07389	114.73194
6300.00000	114.70213	-122.94987	114.70213
6350.00000	114.64641	-125.81286	114.64641
6400.00000	114.57474	-128.61021	114.57474
6450.00000	114.53753	-131.48684	114.53753
6500.00000	114.45630	-134.27211	114.45630
6550.00000	114.38993	-136.99535	114.38993
6600.00000	114.33616	-139.68954	114.33616
6650.00000	114.29585	-142.40895	114.29585
6700.00000	114.25515	-145.24897	114.25515
6750.00000	114.22839	-148.00075	114.22839
6800.00000	114.20848	-150.76333	114.20848
6850.00000	114.19652	-153.57049	114.19652
6900.00000	114.18616	-156.29080	114.18616
6950.00000	114.16469	-159.20789	114.16469
7000.00000	114.18473	-162.19712	114.18473
7050.00000	114.17725	-165.33662	114.17725
7100.00000	114.19093	-168.58249	114.19093
7150.00000	114.20315	-171.79592	114.20315
7200.00000	114.19514	-175.14752	114.19514
7250.00000	114.16465	-178.77258	114.16465
7300.00000	114.18667	-182.41831	114.18667
7350.00000	114.12439	-186.04422	114.12439
7400.00000	114.10351	-189.99483	114.10351
7450.00000	114.04603	-193.95935	114.04603
7500.00000	113.97615	-197.96785	113.97615
7550.00000	113.89674	-202.07760	113.89674
7600.00000	113.76656	-206.24248	113.76656
7650.00000	113.61133	-210.39383	113.61133
7700.00000	113.48108	-214.54021	113.48108
7750.00000	113.26659	-218.65092	113.26659
7800.00000	113.06319	-222.71755	113.06319
7850.00000	112.83690	-226.79199	112.83690
7900.00000	112.57689	-230.63787	112.57689
7950.00000	112.29898	-234.57650	112.29898
8000.00000	112.00760	-238.31791	112.00760
8050.00000	111.70660	-242.20768	111.70660
8100.00000	111.39339	-245.40144	111.39339
8150.00000	110.99522	-248.53596	110.99522
8200.00000	110.63154	-251.34857	110.63154
8250.00000	110.24593	-254.41344	110.24593
8300.00000	109.86995	-257.26054	109.86995
8350.00000	109.45804	-259.90806	109.45804
8400.00000	109.04810	-262.98997	109.04810
8450.00000	108.57929	-265.65054	108.57929
8500.00000	108.17266	-268.49193	108.17266
8550.00000	107.83077	-270.86087	107.83077
8600.00000	107.48339	-273.56721	107.48339
8650.00000	107.14516	-275.73239	107.14516
8700.00000	106.89735	-278.36022	106.89735
8750.00000	106.55427	-279.28588	106.55427
8800.00000	106.27474	-281.16546	106.27474
8850.00000	105.95227	-282.44161	105.95227
8900.00000	105.65864	-283.25787	105.65864
8950.00000	105.32998	-284.58778	105.32998
9000.00000	104.90200	-285.80757	104.90200
9050.00000	104.54637	-287.64214	104.54637
9100.00000	104.13451	-289.38100	104.13451
9150.00000	103.81619	-291.35488	103.81619
9200.00000	103.56544	-293.46154	103.56544
9250.00000	103.29989	-295.82143	103.29989
9300.00000	103.15401	-298.17497	103.15401
9350.00000	103.09059	-299.84938	103.09059
9400.00000	102.93930	-300.76542	102.93930
9450.00000	102.89341	-301.35795	102.89341
9500.00000	102.83319	-300.93211	102.83319
9550.00000	102.80930	-300.53409	102.80930
9600.00000	102.78691	-301.40372	102.78691
9650.00000	102.56898	-302.59158	102.56898
9700.00000	102.31098	-303.21609	102.31098
9750.00000	102.13440	-305.33665	102.13440
9800.00000	101.89051	-306.91150	101.89051
9850.00000	101.75970	-308.74605	101.75970
9900.00000	101.55535	-311.05804	101.55535
9950.00000	101.53109	-312.59512	101.53109
10000.00000	101.52684	-314.55122	101.52684
10050.00000	101.49694	-315.75314	101.49694
10100.00000	101.43124	-316.62838	101.43124
10150.00000	101.24067	-318.25085	101.24067
10200.00000	101.08839	-319.37894	101.08839
10250.00000	100.85604	-321.00816	100.85604
10300.00000	100.73881	-323.00870	100.73881
10350.00000	100.51415	-325.07970	100.51415
10400.00000	100.31167	-327.77180	100.31167
10450.00000	100.30002	-330.54846	100.30002
10500.00000	100.32574	-332.92144	100.32574
10550.00000	100.33555	-335.28901	100.33555
10600.00000	100.31320	-337.04910	100.31320
10650.00000	100.24839	-338.24418	100.24839
10700.00000	100.16863	-340.56704	100.16863
10750.00000	100.08764	-342.37306	100.08764
10800.00000	99.88660	-344.11947	99.88660
10850.00000	99.70424	-347.11324	99.70424
10900.00000	99.54099	-349.30697	99.54099
10950.00000	99.39548	-351.44714	99.39548
11000.00000	99.26957	-353.86065	99.26957
11050.00000	99.00280	-356.02034	99.00280
11100.00000	98.83668	-358.35400	98.83668
11150.00000	98.55171	-360.07579	98.55171
11200.00000	98.39231	-361.71331	98.39231
11250.00000	98.07106	-363.88888	98.07106
11300.00000	97.74315	-365.80465	97.74315
11350.00000	97.46579	-367.37043	97.46579
11400.00000	97.11806	-369.23028	97.11806
11450.00000	96.91772	-371.47865	96.91772
11500.00000	96.82111	-372.30238	96.82111
11550.00000	96.52381	-373.53991	96.52381
11600.00000	96.40884	-375.53817	96.40884
11650.00000	96.16928	-375.72049	96.16928
11700.00000	96.02916	-376.73238	96.02916
11750.00000	95.90077	-377.75764	95.90077
11800.00000	95.75249	-379.36070	95.75249
11850.00000	95.68583	-379.65635	95.68583
11900.00000	95.41955	-381.21041	95.41955
11950.00000	95.31804	-382.07303	95.31804
12000.00000	95.13860	-382.65762	95.13860
12050.00000	94.92660	-383.90283	94.92660
12100.00000	94.81816	-386.28817	94.81816
12150.00000	94.69213	-388.10564	94.69213
12200.00000	94.64580	-390.27690	94.64580
12250.00000	94.59553	-391.63255	94.59553
12300.00000	95.70382	-393.14658	95.70382
12350.00000	94.43446	-394.53299	94.43446
12400.00000	94.24885	-395.13887	94.24885
12450.00000	94.02658	-396.69768	94.02658
12500.00000	93.76809	-398.84975	93.76809
12550.00000	93.58986	-401.21838	93.58986
12600.00000	93.31859	-403.88946	93.31859
12650.00000	93.34363	-405.73817	93.34363
12700.00000	93.05723	-407.50587	93.05723
12750.00000	92.77510	-409.27873	92.77510
12800.00000	92.46013	-410.33079	92.46013
12850.00000	91.89050	-411.60748	91.89050
12900.00000	91.63957	-413.96454	91.63957
12950.00000	91.34527	-415.09952	91.34527
13000.00000	90.98815	-416.60864	90.98815
13050.00000	90.78444	-416.46178	90.78444
13100.00000	90.36771	-417.43483	90.36771
13150.00000	90.06982	-419.16761	90.06982
13200.00000	89.74302	-418.49284	89.74302
13250.00000	89.41016	-418.59115	89.41016
13300.00000	88.98500	-416.56173	88.98500
13350.00000	88.65325	-417.52801	88.65325
13400.00000	88.62367	-417.71532	88.62367
13450.00000	88.13363	-416.01693	88.13363
13500.00000	87.98077	-414.13373	87.98077
13550.00000	87.61617	-414.45927	87.61617
13600.00000	87.42955	-412.54876	87.42955
13650.00000	87.20876	-411.70620	87.20876
13700.00000	86.84606	-411.44716	86.84606
13750.00000	86.64339	-411.10015	86.64339
13800.00000	86.48819	-412.18037	86.48819
13850.00000	86.42466	-412.13438	86.42466
13900.00000	86.35926	-410.44672	86.35926
13950.00000	86.46200	-407.99062	86.46200
14000.00000	86.56511	-405.18964	86.56511
14050.00000	86.32902	-404.24509	86.32902
14100.00000	86.14852	-402.74635	86.14852
14150.00000	86.21317	-402.63216	86.21317
14200.00000	86.37496	-401.48827	86.37496
14250.00000	86.86017	-398.39220	86.86017
14300.00000	86.86650	-396.50310	86.86650
14350.00000	86.95801	-393.85736	86.95801
14400.00000	86.74138	-392.54055	86.74138
14450.00000	86.82074	-391.30869	86.82074
14500.00000	86.84699	-391.40702	86.84699
14550.00000	87.07255	-390.45467	87.07255
14600.00000	87.38674	-390.52274	87.38674
14650.00000	87.94803	-387.74268	87.94803
14700.00000	88.00217	-390.28465	88.00217
14750.00000	88.53692	-388.62241	88.53692
14800.00000	88.68314	-386.73528	88.68314
14850.00000	88.97443	-386.07719	88.97443
14900.00000	89.31862	-386.87005	89.31862
14950.00000	89.74346	-387.95684	89.74346
15000.00000	90.32223	-387.60690	90.32223
15050.00000	90.54241	-385.58675	90.54241
15100.00000	90.82097	-383.73216	90.82097
15150.00000	91.16734	-385.10592	91.16734
15200.00000	91.30224	-384.65652	91.30224
15250.00000	91.41632	-386.58472	91.41632
15300.00000	92.13700	-387.52109	92.13700
15350.00000	92.68097	-389.01774	92.68097
15400.00000	93.04503	-387.50200	93.04503
15450.00000	93.38628	-388.20830	93.38628
15500.00000	93.70908	-388.88488	93.70908
15550.00000	94.07877	-390.27177	94.07877
15600.00000	94.56227	-392.37972	94.56227
15650.00000	95.12113	-392.01740	95.12113
15700.00000	95.41360	-394.00328	95.41360
15750.00000	96.01603	-395.11589	96.01603
15800.00000	96.50672	-395.90867	96.50672
15850.00000	96.75169	-397.15873	96.75169
15900.00000	96.96908	-400.17710	96.96908
15950.00000	97.50992	-402.02181	97.50992
16000.00000	98.01325	-403.97393	98.01325
16050.00000	98.56375	-406.23631	98.56375
16100.00000	98.84688	-408.50539	98.84688
16150.00000	99.11199	-410.63206	99.11199
16200.00000	99.45876	-414.00374	99.45876
16250.00000	99.85215	-416.43870	99.85215
16300.00000	100.37876	-419.61757	100.37876
16350.00000	100.73243	-422.37692	100.73243
16400.00000	101.04343	-424.86665	101.04343
16450.00000	101.32447	-427.73692	101.32447
16500.00000	101.58212	-431.25123	101.58212
16550.00000	101.86772	-434.86604	101.86772
16600.00000	102.10312	-437.90984	102.10312
16650.00000	102.32157	-440.95337	102.32157
16700.00000	102.58526	-443.79158	102.58526
16750.00000	102.67137	-447.41259	102.67137
16800.00000	102.83631	-450.83688	102.83631
16850.00000	103.12281	-453.74734	103.12281
16900.00000	103.30380	-457.19307	103.30380
16950.00000	103.44203	-460.16126	103.44203
17000.00000	103.44137	-463.20994	103.44137
17050.00000	103.61371	-465.52473	103.61371
17100.00000	103.63621	-467.56728	103.63621
17150.00000	103.93395	-471.22342	103.93395
17200.00000	104.09213	-474.04361	104.09213
17250.00000	104.15805	-477.30596	104.15805
17300.00000	104.36537	-479.90616	104.36537
17350.00000	104.36059	-482.47381	104.36059
17400.00000	104.57101	-485.20971	104.57101
17450.00000	104.61315	-488.80538	104.61315
17500.00000	104.78868	-491.55510	104.78868
17550.00000	104.93196	-494.36836	104.93196
17600.00000	105.12612	-496.75019	105.12612
17650.00000	105.25077	-500.45790	105.25077
17700.00000	105.38600	-503.55624	105.38600
17750.00000	105.52457	-506.17028	105.52457
17800.00000	105.55062	-509.79498	105.55062
17850.00000	105.65327	-512.32507	105.65327
17900.00000	105.75238	-515.75279	105.75238
17950.00000	105.90872	-519.22148	105.90872
18000.00000	105.95941	-522.93954	105.95941
18050.00000	106.15820	-525.69881	106.15820
18100.00000	106.15792	-529.55588	106.15792
18150.00000	106.20085	-532.08288	106.20085
18200.00000	106.17465	-535.98518	106.17465
18250.00000	106.29012	-538.57133	106.29012
18300.00000	106.42610	-541.89691	106.42610
18350.00000	106.38753	-544.93697	106.38753
18400.00000	106.32617	-548.44740	106.32617
18450.00000	106.30883	-552.74435	106.30883
18500.00000	106.32589	-555.88108	106.32589
18550.00000	106.29789	-558.36487	106.29789
18600.00000	106.38690	-562.14358	106.38690
18650.00000	106.22134	-564.94091	106.22134
18700.00000	106.17709	-568.55119	106.17709
18750.00000	106.20475	-571.55077	106.20475
18800.00000	106.25076	-573.98760	106.25076
18850.00000	106.07776	-577.30694	106.07776
18900.00000	106.02597	-580.05099	106.02597
18950.00000	105.98290	-583.30127	105.98290
19000.00000	105.77481	-585.77747	105.77481
19050.00000	105.85892	-588.69187	105.85892
19100.00000	105.74976	-591.35297	105.74976
19150.00000	105.83478	-593.73311	105.83478
19200.00000	105.74877	-596.04307	105.74877
19250.00000	105.68567	-599.70787	105.68567
19300.00000	105.55921	-601.70636	105.55921
19350.00000	105.54969	-604.32537	105.54969
19400.00000	105.48824	-606.87152	105.48824
19450.00000	105.52624	-608.94060	105.52624
19500.00000	105.40389	-612.41262	105.40389
19550.00000	105.37803	-614.90123	105.37803
19600.00000	105.41907	-617.95962	105.41907
19650.00000	105.32112	-620.16355	105.32112
19700.00000	105.19305	-622.81154	105.19305
19750.00000	105.12702	-624.98257	105.12702
19800.00000	105.17209	-628.45623	105.17209
19850.00000	105.13761	-630.79957	105.13761
19900.00000	105.03618	-634.09826	105.03618
19950.00000	104.96525	-636.57396	104.96525
20000.00000	104.91191	-639.25188	104.91191
20050.00000	104.84297	-641.95652	104.84297
20100.00000	104.72064	-644.72937	104.72064
20150.00000	104.67663	-646.31454	104.67663
20200.00000	104.53297	-649.78675	104.53297
20250.00000	104.39012	-652.10743	104.39012
20300.00000	104.19517	-654.70499	104.19517
20350.00000	104.17446	-657.36669	104.17446
20400.00000	103.97613	-658.91996	103.97613
20450.00000	103.76742	-661.33740	103.76742
20500.00000	103.67581	-663.72888	103.67581
20550.00000	103.31218	-665.02717	103.31218
20600.00000	103.25471	-666.79890	103.25471
20650.00000	103.10244	-668.43126	103.10244
20700.00000	102.91989	-669.81593	102.91989
20750.00000	102.81886	-671.12371	102.81886
20800.00000	102.65167	-671.98874	102.65167
20850.00000	102.60458	-673.19973	102.60458
20900.00000	102.47962	-674.02317	102.47962
20950.00000	102.40477	-674.16302	102.40477
21000.00000	102.38670	-674.72121	102.38670
21050.00000	102.54394	-675.08810	102.54394
21100.00000	102.57685	-675.37387	102.57685
21150.00000	102.76681	-676.37716	102.76681
21200.00000	102.96382	-676.76625	102.96382
21250.00000	103.13926	-679.07859	103.13926
21300.00000	103.41123	-680.04995	103.41123
21350.00000	103.59060	-681.52507	103.59060
21400.00000	103.78403	-683.91573	103.78403
21450.00000	104.01068	-686.19387	104.01068
21500.00000	104.19479	-689.03472	104.19479
21550.00000	104.26598	-691.36730	104.26598
21600.00000	104.46123	-694.37317	104.46123
21650.00000	104.53305	-697.30899	104.53305
21700.00000	104.59248	-699.97768	104.59248
21750.00000	104.67023	-702.82131	104.67023
21800.00000	104.69390	-705.94879	104.69390
21850.00000	104.63300	-708.59641	104.63300
21900.00000	104.63677	-711.35814	104.63677
21950.00000	104.60173	-713.76230	104.60173
22000.00000	104.63527	-716.09716	104.63527
22050.00000	104.59310	-718.32382	104.59310
22100.00000	104.51902	-720.83086	104.51902
22150.00000	104.48304	-723.21569	104.48304
22200.00000	104.51322	-725.30448	104.51322
22250.00000	104.42395	-727.19909	104.42395
22300.00000	104.31220	-729.43543	104.31220
22350.00000	104.38366	-731.80872	104.38366
22400.00000	104.42373	-734.06591	104.42373
22450.00000	104.29095	-736.01501	104.29095
22500.00000	104.21188	-736.92685	104.21188
22550.00000	104.22572	-739.25781	104.22572
22600.00000	104.18615	-742.12886	104.18615
22650.00000	104.15101	-744.08536	104.15101
22700.00000	104.16353	-745.95059	104.16353
22750.00000	104.10484	-746.06016	104.10484
