---ACOUSTIC CALIBRATION---
Filename: C:\Data\AZH DATA\AZH61\RightSecondary.calib
Date: 8/27/2019 3:35:12 PM
Format: 4
Probe Tube Correction File: C:\Data\Probe Tube Calibrations\50_ProbeTube.calib
Experiment VIs: 850
EPL_CFTS.exe V12.0.1 (2012)
DAQmx V9.6

Attenuation (dB): 40.000000
Min Freq (Hz): 50.000000
Max Freq (Hz): 49950.000000
Freq Step (Hz): 50.000000
Sample Rate (Hz): 100000.000000
[Smoothing]
Method=None
MA.Iterations=0
MA.Length=0
Loess.Length=0
Loess.Type=Linear
Loess.Robust=FALSE


Freq(Hz)	Mag(dB)	Phase(deg)	Unsmoothed(dB)

50.00000	92.59199	449.38992	92.59199
100.00000	75.22910	491.77464	75.22910
150.00000	77.43506	480.82807	77.43506
200.00000	77.77813	404.37394	77.77813
250.00000	86.66420	413.54096	86.66420
300.00000	83.50321	322.65258	83.50321
350.00000	83.97936	332.14884	83.97936
400.00000	86.10764	317.20751	86.10764
450.00000	85.72228	305.72017	85.72228
500.00000	87.57025	316.91553	87.57025
550.00000	89.56276	320.24364	89.56276
600.00000	92.13564	313.82956	92.13564
650.00000	93.88933	313.62042	93.88933
700.00000	95.94792	305.85207	95.94792
750.00000	97.74304	304.28455	97.74304
800.00000	100.43390	294.16848	100.43390
850.00000	102.59211	283.97944	102.59211
900.00000	104.28888	266.29638	104.28888
950.00000	105.34624	249.26615	105.34624
1000.00000	105.13694	231.68993	105.13694
1050.00000	104.66835	222.82214	104.66835
1100.00000	104.86094	210.26810	104.86094
1150.00000	103.90765	199.72328	103.90765
1200.00000	103.52145	197.27195	103.52145
1250.00000	103.53519	186.96379	103.53519
1300.00000	102.58875	181.13304	102.58875
1350.00000	101.77414	176.55893	101.77414
1400.00000	101.01631	176.88273	101.01631
1450.00000	101.30236	176.80126	101.30236
1500.00000	100.67123	175.84987	100.67123
1550.00000	101.32956	173.27806	101.32956
1600.00000	101.99316	169.79781	101.99316
1650.00000	102.86757	160.95882	102.86757
1700.00000	101.42957	156.63815	101.42957
1750.00000	101.29615	155.05246	101.29615
1800.00000	100.91768	152.53722	100.91768
1850.00000	100.77062	156.01905	100.77062
1900.00000	101.88937	156.04809	101.88937
1950.00000	102.64013	147.35311	102.64013
2000.00000	102.35584	138.75643	102.35584
2050.00000	101.37813	134.94011	101.37813
2100.00000	101.56897	133.23089	101.56897
2150.00000	101.04289	128.69132	101.04289
2200.00000	100.50392	125.86655	100.50392
2250.00000	99.59693	123.70219	99.59693
2300.00000	99.55003	125.09476	99.55003
2350.00000	99.17125	124.92947	99.17125
2400.00000	99.08517	125.88994	99.08517
2450.00000	98.94023	123.40992	98.94023
2500.00000	98.44976	124.98067	98.44976
2550.00000	98.07213	127.05203	98.07213
2600.00000	97.88525	134.06557	97.88525
2650.00000	98.92755	141.61282	98.92755
2700.00000	100.73808	143.29875	100.73808
2750.00000	102.37931	135.89678	102.37931
2800.00000	102.99846	125.80172	102.99846
2850.00000	102.93194	117.41857	102.93194
2900.00000	102.58365	110.75491	102.58365
2950.00000	102.20479	106.92265	102.20479
3000.00000	101.79499	103.12064	101.79499
3050.00000	101.36705	99.98293	101.36705
3100.00000	101.13064	98.33024	101.13064
3150.00000	100.75703	94.12576	100.75703
3200.00000	100.16710	91.65651	100.16710
3250.00000	99.48661	89.87364	99.48661
3300.00000	98.59016	88.82117	98.59016
3350.00000	97.45259	90.37489	97.45259
3400.00000	96.60754	97.94492	96.60754
3450.00000	96.37501	105.97533	96.37501
3500.00000	96.82277	112.21211	96.82277
3550.00000	97.19673	115.42688	97.19673
3600.00000	97.43339	118.09365	97.43339
3650.00000	97.16747	121.34420	97.16747
3700.00000	97.00774	130.35946	97.00774
3750.00000	97.79533	142.51014	97.79533
3800.00000	99.52933	150.91051	99.52933
3850.00000	101.55527	154.55370	101.55527
3900.00000	103.40823	154.01800	103.40823
3950.00000	105.10221	151.41656	105.10221
4000.00000	106.48300	147.00304	106.48300
4050.00000	107.47656	142.69687	107.47656
4100.00000	108.36324	138.84723	108.36324
4150.00000	109.32651	135.55967	109.32651
4200.00000	110.03734	132.31638	110.03734
4250.00000	110.85978	129.70707	110.85978
4300.00000	111.75724	127.48503	111.75724
4350.00000	112.75164	125.16385	112.75164
4400.00000	113.88918	122.71756	113.88918
4450.00000	115.15981	119.41132	115.15981
4500.00000	116.52562	114.87050	116.52562
4550.00000	117.91562	108.86336	117.91562
4600.00000	119.27452	101.60488	119.27452
4650.00000	120.65395	92.99699	120.65395
4700.00000	121.94255	82.37784	121.94255
4750.00000	123.05073	69.85554	123.05073
4800.00000	123.86627	55.50102	123.86627
4850.00000	124.24728	40.19848	124.24728
4900.00000	124.15506	24.79641	124.15506
4950.00000	123.59102	10.47296	123.59102
5000.00000	122.57188	-1.45612	122.57188
5050.00000	121.51685	-9.70774	121.51685
5100.00000	120.31754	-19.16532	120.31754
5150.00000	117.84480	-21.71140	117.84480
5200.00000	116.73417	-3.43607	116.73417
5250.00000	119.80993	 2.28439	119.80993
5300.00000	121.55214	-10.89526	121.55214
5350.00000	121.87149	-24.42333	121.87149
5400.00000	121.62770	-35.45261	121.62770
5450.00000	121.20007	-44.24464	121.20007
5500.00000	120.72568	-51.75531	120.72568
5550.00000	120.25971	-58.23621	120.25971
5600.00000	119.79836	-64.15119	119.79836
5650.00000	119.35678	-69.50639	119.35678
5700.00000	118.91213	-74.66001	118.91213
5750.00000	118.50300	-79.27092	118.50300
5800.00000	118.09284	-83.77786	118.09284
5850.00000	117.71221	-88.10899	117.71221
5900.00000	117.34330	-92.24666	117.34330
5950.00000	116.98272	-96.21110	116.98272
6000.00000	116.63537	-99.95635	116.63537
6050.00000	116.27902	-103.70784	116.27902
6100.00000	115.94628	-107.31543	115.94628
6150.00000	115.61670	-110.87904	115.61670
6200.00000	115.28070	-114.32814	115.28070
6250.00000	114.97357	-117.65723	114.97357
6300.00000	114.67073	-120.96079	114.67073
6350.00000	114.35742	-124.23891	114.35742
6400.00000	114.05137	-127.35419	114.05137
6450.00000	113.76954	-130.48522	113.76954
6500.00000	113.45004	-133.54144	113.45004
6550.00000	113.14007	-136.38146	113.14007
6600.00000	112.84026	-139.19504	112.84026
6650.00000	112.54021	-141.84951	112.54021
6700.00000	112.24484	-144.56326	112.24484
6750.00000	111.95385	-146.99111	111.95385
6800.00000	111.67659	-149.33898	111.67659
6850.00000	111.40091	-151.60324	111.40091
6900.00000	111.15480	-153.72409	111.15480
6950.00000	110.91413	-155.75185	110.91413
7000.00000	110.71048	-157.79836	110.71048
7050.00000	110.50289	-159.94215	110.50289
7100.00000	110.32579	-162.07579	110.32579
7150.00000	110.14370	-164.02905	110.14370
7200.00000	109.96565	-165.97879	109.96565
7250.00000	109.78207	-167.81639	109.78207
7300.00000	109.67334	-169.59693	109.67334
7350.00000	109.55018	-171.23878	109.55018
7400.00000	109.47262	-173.09437	109.47262
7450.00000	109.42352	-174.94466	109.42352
7500.00000	109.40512	-176.89178	109.40512
7550.00000	109.40791	-178.94491	109.40791
7600.00000	109.40945	-181.31717	109.40945
7650.00000	109.42126	-183.79436	109.42126
7700.00000	109.49177	-186.40931	109.49177
7750.00000	109.49744	-189.47015	109.49744
7800.00000	109.51603	-192.67779	109.51603
7850.00000	109.50234	-196.09726	109.50234
7900.00000	109.46517	-199.68186	109.46517
7950.00000	109.38734	-203.43654	109.38734
8000.00000	109.27213	-207.30740	109.27213
8050.00000	109.11777	-211.36697	109.11777
8100.00000	108.95820	-214.71632	108.95820
8150.00000	108.68449	-218.39866	108.68449
8200.00000	108.44391	-221.64180	108.44391
8250.00000	108.15758	-225.10616	108.15758
8300.00000	107.90127	-228.33987	107.90127
8350.00000	107.59864	-231.26028	107.59864
8400.00000	107.28829	-234.56354	107.28829
8450.00000	106.89526	-237.25228	106.89526
8500.00000	106.52924	-239.85333	106.52924
8550.00000	106.22621	-241.91308	106.22621
8600.00000	105.89880	-244.35485	105.89880
8650.00000	105.52799	-246.30377	105.52799
8700.00000	105.23953	-248.86705	105.23953
8750.00000	104.86477	-249.97007	104.86477
8800.00000	104.57763	-252.18705	104.57763
8850.00000	104.26698	-254.07220	104.26698
8900.00000	104.02035	-255.64263	104.02035
8950.00000	103.79307	-257.59935	103.79307
9000.00000	103.51795	-259.11472	103.51795
9050.00000	103.38182	-260.85700	103.38182
9100.00000	103.24442	-262.35788	103.24442
9150.00000	103.11912	-263.89833	103.11912
9200.00000	103.02865	-265.27697	103.02865
9250.00000	102.87658	-266.76572	102.87658
9300.00000	102.76353	-268.03709	102.76353
9350.00000	102.69049	-269.43276	102.69049
9400.00000	102.49300	-270.47829	102.49300
9450.00000	102.42096	-271.98961	102.42096
9500.00000	102.35661	-273.46286	102.35661
9550.00000	102.26290	-275.29842	102.26290
9600.00000	102.25801	-277.43164	102.25801
9650.00000	102.22128	-279.84867	102.22128
9700.00000	102.21010	-281.38995	102.21010
9750.00000	102.27918	-283.99300	102.27918
9800.00000	102.22016	-285.50850	102.22016
9850.00000	102.18345	-286.72912	102.18345
9900.00000	101.97894	-288.53620	101.97894
9950.00000	101.85123	-289.73905	101.85123
10000.00000	101.67297	-291.81329	101.67297
10050.00000	101.44121	-293.72675	101.44121
10100.00000	101.21630	-295.91761	101.21630
10150.00000	100.94840	-299.04081	100.94840
10200.00000	100.79740	-301.75895	100.79740
10250.00000	100.65744	-304.70438	100.65744
10300.00000	100.71186	-307.35578	100.71186
10350.00000	100.64941	-309.48449	100.64941
10400.00000	100.53940	-311.58068	100.53940
10450.00000	100.55835	-313.55728	100.55835
10500.00000	100.51723	-315.21915	100.51723
10550.00000	100.38254	-317.08182	100.38254
10600.00000	100.19452	-318.91944	100.19452
10650.00000	99.99795	-320.83724	99.99795
10700.00000	99.84316	-324.17587	99.84316
10750.00000	99.77012	-327.04695	99.77012
10800.00000	99.64238	-329.62248	99.64238
10850.00000	99.56471	-333.09476	99.56471
10900.00000	99.50821	-335.34898	99.50821
10950.00000	99.41332	-337.15619	99.41332
11000.00000	99.26776	-339.09185	99.26776
11050.00000	98.91642	-341.02237	98.91642
11100.00000	98.62673	-343.59726	98.62673
11150.00000	98.24350	-345.79196	98.24350
11200.00000	98.01144	-348.27113	98.01144
11250.00000	97.69200	-351.19067	97.69200
11300.00000	97.40663	-353.79651	97.40663
11350.00000	97.19639	-355.46906	97.19639
11400.00000	96.90425	-357.07014	96.90425
11450.00000	96.69718	-358.88925	96.69718
11500.00000	96.54547	-359.43244	96.54547
11550.00000	96.16641	-360.35694	96.16641
11600.00000	95.97103	-362.46569	95.97103
11650.00000	95.67458	-363.11406	95.67458
11700.00000	95.49889	-364.75676	95.49889
11750.00000	95.41856	-366.55579	95.41856
11800.00000	95.34078	-368.54706	95.34078
11850.00000	95.33780	-368.98535	95.33780
11900.00000	95.07621	-370.75592	95.07621
11950.00000	95.00569	-371.71623	95.00569
12000.00000	94.78046	-372.91414	94.78046
12050.00000	94.49584	-374.36420	94.49584
12100.00000	94.31718	-377.46636	94.31718
12150.00000	94.12230	-379.95294	94.12230
12200.00000	94.04449	-382.79843	94.04449
12250.00000	93.90264	-384.65003	93.90264
12300.00000	94.86394	-386.92989	94.86394
12350.00000	93.52383	-388.62995	93.52383
12400.00000	93.21310	-389.32570	93.21310
12450.00000	92.82403	-390.68591	92.82403
12500.00000	92.38675	-392.84631	92.38675
12550.00000	92.02423	-394.53637	92.02423
12600.00000	91.58385	-396.57674	91.58385
12650.00000	91.45759	-398.10924	91.45759
12700.00000	91.07517	-399.33592	91.07517
12750.00000	90.72023	-400.51393	90.72023
12800.00000	90.37759	-400.44692	90.37759
12850.00000	89.66311	-400.20711	89.66311
12900.00000	89.37997	-401.46355	89.37997
12950.00000	89.13365	-402.42692	89.13365
13000.00000	88.83228	-404.11326	88.83228
13050.00000	88.69972	-403.36488	88.69972
13100.00000	88.50846	-403.41841	88.50846
13150.00000	88.37735	-403.09345	88.37735
13200.00000	88.05568	-401.03601	88.05568
13250.00000	87.70624	-400.85488	87.70624
13300.00000	87.23167	-398.42236	87.23167
13350.00000	86.91998	-399.80107	86.91998
13400.00000	86.89873	-401.13233	86.89873
13450.00000	86.63961	-399.97352	86.63961
13500.00000	86.73469	-398.61943	86.73469
13550.00000	86.49470	-398.28710	86.49470
13600.00000	86.36218	-396.20525	86.36218
13650.00000	86.15062	-395.04476	86.15062
13700.00000	85.69833	-394.82551	85.69833
13750.00000	85.44194	-393.57054	85.44194
13800.00000	85.37428	-393.98165	85.37428
13850.00000	85.27517	-394.52780	85.27517
13900.00000	85.17641	-393.77829	85.17641
13950.00000	85.30527	-392.80446	85.30527
14000.00000	85.56032	-390.96935	85.56032
14050.00000	85.60198	-390.70328	85.60198
14100.00000	85.41146	-388.54065	85.41146
14150.00000	85.49942	-387.24202	85.49942
14200.00000	85.59073	-385.22430	85.59073
14250.00000	85.97880	-382.53526	85.97880
14300.00000	86.10189	-381.21130	86.10189
14350.00000	86.07835	-379.22123	86.07835
14400.00000	85.72646	-379.13323	85.72646
14450.00000	85.84332	-377.58066	85.84332
14500.00000	86.16589	-379.09527	86.16589
14550.00000	86.57674	-378.23284	86.57674
14600.00000	86.82265	-378.28106	86.82265
14650.00000	87.41594	-374.71634	87.41594
14700.00000	87.60330	-377.44624	87.60330
14750.00000	87.92678	-376.24484	87.92678
14800.00000	87.99537	-374.41694	87.99537
14850.00000	88.35716	-374.53065	88.35716
14900.00000	88.76509	-375.24033	88.76509
14950.00000	89.14532	-375.81888	89.14532
15000.00000	89.42932	-377.05980	89.42932
15050.00000	89.58569	-376.58241	89.58569
15100.00000	90.06154	-376.75658	90.06154
15150.00000	90.49144	-377.67429	90.49144
15200.00000	90.73867	-376.86847	90.73867
15250.00000	90.89507	-377.29791	90.89507
15300.00000	91.38637	-377.86721	91.38637
15350.00000	91.62835	-380.08167	91.62835
15400.00000	91.92279	-378.91488	91.92279
15450.00000	92.20052	-379.83154	92.20052
15500.00000	92.59856	-381.12516	92.59856
15550.00000	92.97767	-383.19896	92.97767
15600.00000	93.33257	-384.94878	93.33257
15650.00000	94.01250	-384.46976	94.01250
15700.00000	94.29020	-386.71192	94.29020
15750.00000	94.77090	-387.15712	94.77090
15800.00000	95.16742	-387.81181	95.16742
15850.00000	95.39681	-389.79717	95.39681
15900.00000	95.72689	-392.28805	95.72689
15950.00000	96.13460	-394.59357	96.13460
16000.00000	96.56121	-396.52966	96.56121
16050.00000	96.97311	-398.24614	96.97311
16100.00000	97.13128	-401.08656	97.13128
16150.00000	97.37815	-403.94257	97.37815
16200.00000	97.79044	-407.58469	97.79044
16250.00000	98.12689	-409.38634	98.12689
16300.00000	98.52767	-411.31904	98.52767
16350.00000	98.70995	-413.77559	98.70995
16400.00000	98.89064	-416.10878	98.89064
16450.00000	99.08685	-418.91720	99.08685
16500.00000	99.24125	-421.81323	99.24125
16550.00000	99.54778	-424.56151	99.54778
16600.00000	99.78483	-427.28292	99.78483
16650.00000	99.89193	-429.66179	99.89193
16700.00000	100.18782	-431.49532	100.18782
16750.00000	100.24066	-434.48698	100.24066
16800.00000	100.40876	-436.80484	100.40876
16850.00000	100.66805	-439.16078	100.66805
16900.00000	100.90832	-441.52051	100.90832
16950.00000	101.08074	-443.87547	101.08074
17000.00000	101.15136	-446.17608	101.15136
17050.00000	101.36359	-447.99202	101.36359
17100.00000	101.49619	-449.81514	101.49619
17150.00000	101.82058	-452.71337	101.82058
17200.00000	102.06231	-455.05993	102.06231
17250.00000	102.22211	-457.93182	102.22211
17300.00000	102.48098	-460.21287	102.48098
17350.00000	102.55788	-462.43252	102.55788
17400.00000	102.83005	-465.10461	102.83005
17450.00000	102.97031	-468.21686	102.97031
17500.00000	103.20202	-470.81340	103.20202
17550.00000	103.39440	-473.72960	103.39440
17600.00000	103.65782	-476.03228	103.65782
17650.00000	103.82073	-479.64771	103.82073
17700.00000	103.94902	-482.86002	103.94902
17750.00000	104.21365	-485.01762	104.21365
17800.00000	104.29302	-488.56010	104.29302
17850.00000	104.44053	-491.11701	104.44053
17900.00000	104.55694	-494.29930	104.55694
17950.00000	104.75821	-497.55471	104.75821
18000.00000	104.85558	-501.18767	104.85558
18050.00000	105.10802	-503.77438	105.10802
18100.00000	105.13169	-507.26531	105.13169
18150.00000	105.23023	-509.80512	105.23023
18200.00000	105.25490	-513.68589	105.25490
18250.00000	105.42851	-516.07327	105.42851
18300.00000	105.55147	-519.02642	105.55147
18350.00000	105.64297	-521.91529	105.64297
18400.00000	105.65850	-525.40361	105.65850
18450.00000	105.69365	-529.74851	105.69365
18500.00000	105.80382	-532.46070	105.80382
18550.00000	105.82196	-535.08640	105.82196
18600.00000	105.99411	-538.81385	105.99411
18650.00000	105.91167	-541.34752	105.91167
18700.00000	105.95781	-545.12959	105.95781
18750.00000	106.08358	-548.11807	106.08358
18800.00000	106.22515	-550.60537	106.22515
18850.00000	106.15917	-553.98427	106.15917
18900.00000	106.17855	-557.20703	106.17855
18950.00000	106.23992	-560.81927	106.23992
19000.00000	106.15825	-563.62932	106.15825
19050.00000	106.30178	-566.92360	106.30178
19100.00000	106.27414	-570.02448	106.27414
19150.00000	106.43087	-573.17059	106.43087
19200.00000	106.38441	-576.07341	106.38441
19250.00000	106.36931	-580.35223	106.36931
19300.00000	106.30530	-582.97640	106.30530
19350.00000	106.31915	-586.38669	106.31915
19400.00000	106.25133	-589.48360	106.25133
19450.00000	106.32486	-592.25044	106.32486
19500.00000	106.18848	-596.26138	106.18848
19550.00000	106.17492	-599.46956	106.17492
19600.00000	106.19573	-603.12377	106.19573
19650.00000	106.06172	-605.83253	106.06172
19700.00000	105.91474	-609.17926	105.91474
19750.00000	105.82698	-611.80783	105.82698
19800.00000	105.83356	-615.76565	105.83356
19850.00000	105.75896	-618.68349	105.75896
19900.00000	105.60568	-622.52902	105.60568
19950.00000	105.45285	-625.32941	105.45285
20000.00000	105.34888	-628.53457	105.34888
20050.00000	105.22964	-631.45740	105.22964
20100.00000	105.01687	-634.61298	105.01687
20150.00000	104.93652	-636.51568	104.93652
20200.00000	104.73687	-640.07415	104.73687
20250.00000	104.52159	-642.78891	104.52159
20300.00000	104.26179	-645.38898	104.26179
20350.00000	104.16342	-648.24462	104.16342
20400.00000	103.91888	-649.77089	103.91888
20450.00000	103.63665	-652.23142	103.63665
20500.00000	103.47805	-654.71203	103.47805
20550.00000	103.05466	-656.05166	103.05466
20600.00000	102.95340	-657.63970	102.95340
20650.00000	102.74311	-659.19363	102.74311
20700.00000	102.47625	-660.55310	102.47625
20750.00000	102.35279	-661.64819	102.35279
20800.00000	102.15073	-662.33190	102.15073
20850.00000	102.05911	-663.24360	102.05911
20900.00000	101.88838	-663.88507	101.88838
20950.00000	101.77724	-663.90929	101.77724
21000.00000	101.72443	-664.22076	101.72443
21050.00000	101.87858	-664.26468	101.87858
21100.00000	101.89177	-664.34070	101.89177
21150.00000	102.06093	-665.03485	102.06093
21200.00000	102.24288	-665.39924	102.24288
21250.00000	102.41427	-667.34340	102.41427
21300.00000	102.67210	-667.99732	102.67210
21350.00000	102.88589	-669.21226	102.88589
21400.00000	103.05618	-671.23562	103.05618
21450.00000	103.28682	-673.23633	103.28682
21500.00000	103.49713	-675.91748	103.49713
21550.00000	103.59250	-677.90976	103.59250
21600.00000	103.79490	-680.61029	103.79490
21650.00000	103.90064	-683.37850	103.90064
21700.00000	103.97230	-685.73405	103.97230
21750.00000	104.09845	-688.38440	104.09845
21800.00000	104.17479	-691.10341	104.17479
21850.00000	104.15575	-693.57113	104.15575
21900.00000	104.22643	-696.30030	104.22643
21950.00000	104.22804	-698.65675	104.22804
22000.00000	104.32933	-701.14838	104.32933
22050.00000	104.29807	-703.35935	104.29807
22100.00000	104.29481	-705.90980	104.29481
22150.00000	104.26810	-708.14862	104.26810
22200.00000	104.32173	-710.59853	104.32173
22250.00000	104.26661	-712.44126	104.26661
22300.00000	104.15397	-714.77327	104.15397
22350.00000	104.25628	-717.21962	104.25628
22400.00000	104.28245	-719.37398	104.28245
22450.00000	104.17579	-721.49583	104.17579
22500.00000	104.10685	-722.35250	104.10685
22550.00000	104.10326	-724.48948	104.10326
22600.00000	104.05768	-727.52761	104.05768
22650.00000	104.07731	-729.22045	104.07731
22700.00000	104.05896	-730.59476	104.05896
22750.00000	104.04605	-730.67850	104.04605
22800.00000	104.03941	-734.67642	104.03941
