---ACOUSTIC CALIBRATION---
Filename: C:\Data\AZH DATA\AZH61\RightSecondary.calib
Date: 8/27/2019 3:32:33 PM
Format: 4
Probe Tube Correction File: C:\Data\Probe Tube Calibrations\50_ProbeTube.calib
Experiment VIs: 850
EPL_CFTS.exe V12.0.1 (2012)
DAQmx V9.6

Attenuation (dB): 40.000000
Min Freq (Hz): 50.000000
Max Freq (Hz): 49950.000000
Freq Step (Hz): 50.000000
Sample Rate (Hz): 100000.000000
[Smoothing]
Method=None
MA.Iterations=0
MA.Length=0
Loess.Length=0
Loess.Type=Linear
Loess.Robust=FALSE


Freq(Hz)	Mag(dB)	Phase(deg)	Unsmoothed(dB)

50.00000	91.45489	350.55008	91.45489
100.00000	74.27933	246.88199	74.27933
150.00000	63.98314	215.13127	63.98314
200.00000	73.43003	210.85473	73.43003
250.00000	65.60935	390.71558	65.60935
300.00000	78.96397	206.60102	78.96397
350.00000	61.17092	219.20794	61.17092
400.00000	69.12507	192.03373	69.12507
450.00000	63.62535	205.91971	63.62535
500.00000	74.73241	237.71872	74.73241
550.00000	68.92726	228.59444	68.92726
600.00000	77.37286	255.39080	77.37286
650.00000	71.45187	222.75854	71.45187
700.00000	76.96657	234.98145	76.96657
750.00000	71.86634	196.25602	71.86634
800.00000	74.11958	212.83336	74.11958
850.00000	67.72647	175.10234	67.72647
900.00000	71.02525	167.69015	71.02525
950.00000	58.84826	137.66178	58.84826
1000.00000	71.19333	226.58430	71.19333
1050.00000	59.42956	190.40283	59.42956
1100.00000	67.07045	266.00253	67.07045
1150.00000	65.04364	230.67420	65.04364
1200.00000	67.26883	327.87393	67.26883
1250.00000	67.08070	252.87672	67.08070
1300.00000	52.12188	284.40538	52.12188
1350.00000	67.63954	185.10959	67.63954
1400.00000	62.41086	205.11560	62.41086
1450.00000	69.04814	178.99214	69.04814
1500.00000	63.02546	347.25427	63.02546
1550.00000	72.73818	529.99502	72.73818
1600.00000	74.90609	479.19570	74.90609
1650.00000	70.67321	537.52102	70.67321
1700.00000	74.53150	461.66416	74.53150
1750.00000	68.54262	484.29477	68.54262
1800.00000	75.04022	500.05985	75.04022
1850.00000	68.44547	489.52645	68.44547
1900.00000	71.93710	475.60493	71.93710
1950.00000	69.90976	473.88686	69.90976
2000.00000	76.00540	504.32022	76.00540
2050.00000	66.57755	468.20381	66.57755
2100.00000	73.61777	474.07868	73.61777
2150.00000	70.51123	438.70446	70.51123
2200.00000	61.50128	546.71296	61.50128
2250.00000	72.75528	427.69595	72.75528
2300.00000	58.69471	455.50741	58.69471
2350.00000	72.57719	438.77252	72.57719
2400.00000	68.77176	403.01557	68.77176
2450.00000	69.62432	433.32911	69.62432
2500.00000	68.62182	399.32071	68.62182
2550.00000	71.14884	422.70266	71.14884
2600.00000	69.87106	419.08170	69.87106
2650.00000	66.76356	429.91203	66.76356
2700.00000	67.61354	399.88470	67.61354
2750.00000	61.36657	435.26284	61.36657
2800.00000	63.10156	449.75333	63.10156
2850.00000	58.79242	438.40948	58.79242
2900.00000	63.87913	422.09018	63.87913
2950.00000	61.46056	397.86195	61.46056
3000.00000	51.54016	306.07337	51.54016
3050.00000	57.96422	402.36755	57.96422
3100.00000	57.91722	402.77771	57.91722
3150.00000	53.89568	399.35995	53.89568
3200.00000	60.35934	358.64995	60.35934
3250.00000	58.23915	443.34511	58.23915
3300.00000	55.49098	413.92377	55.49098
3350.00000	58.82122	459.35218	58.82122
3400.00000	55.15648	482.45228	55.15648
3450.00000	58.39624	464.37869	58.39624
3500.00000	63.72283	471.54230	63.72283
3550.00000	63.44235	484.37244	63.44235
3600.00000	65.68064	457.53978	65.68064
3650.00000	70.04075	471.67501	70.04075
3700.00000	69.96875	463.75751	69.96875
3750.00000	71.02523	453.30672	71.02523
3800.00000	74.41241	455.92609	74.41241
3850.00000	73.93877	455.63344	73.93877
3900.00000	74.48237	447.22429	74.48237
3950.00000	72.56032	435.47097	72.56032
4000.00000	73.88432	431.01304	73.88432
4050.00000	76.04613	416.27438	76.04613
4100.00000	77.81930	419.13252	77.81930
4150.00000	78.32940	403.85400	78.32940
4200.00000	78.07626	386.16610	78.07626
4250.00000	79.68402	387.45370	79.68402
4300.00000	78.74656	369.63001	78.74656
4350.00000	80.08497	368.75626	80.08497
4400.00000	80.44997	361.57207	80.44997
4450.00000	78.58887	345.04225	78.58887
4500.00000	79.25780	332.79786	79.25780
4550.00000	78.06838	323.91424	78.06838
4600.00000	78.01990	311.80348	78.01990
4650.00000	77.69881	310.36509	77.69881
4700.00000	76.85539	300.56180	76.85539
4750.00000	76.40557	301.64065	76.40557
4800.00000	76.08773	290.28534	76.08773
4850.00000	74.44610	280.28821	74.44610
4900.00000	73.30499	277.38230	73.30499
4950.00000	72.02870	273.38139	72.02870
5000.00000	69.10951	274.87510	69.10951
5050.00000	69.71050	272.55726	69.71050
5100.00000	68.42677	274.91982	68.42677
5150.00000	67.14597	277.92021	67.14597
5200.00000	67.04657	285.06820	67.04657
5250.00000	68.91878	297.36051	68.91878
5300.00000	71.23428	288.63560	71.23428
5350.00000	71.27435	277.64629	71.27435
5400.00000	70.35763	270.31653	70.35763
5450.00000	70.72678	273.06455	70.72678
5500.00000	69.56672	262.72868	69.56672
5550.00000	69.32536	265.70738	69.32536
5600.00000	68.76013	262.23765	68.76013
5650.00000	68.82159	254.36402	68.82159
5700.00000	69.15505	259.79954	69.15505
5750.00000	68.99717	258.30636	68.99717
5800.00000	68.76320	252.83823	68.76320
5850.00000	67.68857	256.07786	67.68857
5900.00000	68.03213	252.58701	68.03213
5950.00000	68.09772	246.90420	68.09772
6000.00000	67.76872	252.91882	67.76872
6050.00000	67.74869	247.01466	67.74869
6100.00000	68.23456	240.78447	68.23456
6150.00000	67.93453	241.18439	67.93453
6200.00000	67.98134	240.58310	67.98134
6250.00000	67.73725	238.56240	67.73725
6300.00000	67.27001	228.60185	67.27001
6350.00000	67.76517	231.85517	67.76517
6400.00000	67.58003	228.07539	67.58003
6450.00000	68.23619	223.40868	68.23619
6500.00000	67.04267	222.97332	67.04267
6550.00000	68.05727	220.07293	68.05727
6600.00000	67.32262	218.12647	67.32262
6650.00000	66.83042	218.18472	66.83042
6700.00000	66.43837	213.32992	66.43837
6750.00000	67.40707	208.30483	67.40707
6800.00000	66.66448	205.39135	66.66448
6850.00000	67.56185	209.27427	67.56185
6900.00000	67.69737	204.26786	67.69737
6950.00000	67.24187	201.25155	67.24187
7000.00000	66.67841	198.08456	66.67841
7050.00000	67.08454	193.42121	67.08454
7100.00000	67.08215	191.67469	67.08215
7150.00000	68.24246	188.42367	68.24246
7200.00000	67.79077	191.03378	67.79077
7250.00000	66.74625	183.05655	66.74625
7300.00000	67.27645	176.33840	67.27645
7350.00000	67.11327	176.57082	67.11327
7400.00000	67.75418	176.67988	67.75418
7450.00000	67.24272	165.08598	67.24272
7500.00000	67.58496	162.97065	67.58496
7550.00000	67.60050	160.17255	67.60050
7600.00000	67.15911	160.00748	67.15911
7650.00000	66.28659	149.18184	66.28659
7700.00000	66.45345	145.01078	66.45345
7750.00000	67.17752	143.27643	67.17752
7800.00000	65.79557	142.58581	65.79557
7850.00000	66.62401	143.20230	66.62401
7900.00000	66.25869	132.54661	66.25869
7950.00000	64.33737	126.00406	64.33737
8000.00000	64.44910	131.84594	64.44910
8050.00000	64.71659	115.66769	64.71659
8100.00000	65.27389	125.89951	65.27389
8150.00000	65.38187	117.62323	65.38187
8200.00000	63.49562	116.55076	63.49562
8250.00000	63.21459	105.39312	63.21459
8300.00000	64.44489	99.77557	64.44489
8350.00000	63.57305	106.63819	63.57305
8400.00000	62.98534	105.49602	62.98534
8450.00000	62.60698	110.84768	62.60698
8500.00000	63.23256	101.70031	63.23256
8550.00000	61.13045	92.74488	61.13045
8600.00000	61.18802	101.94241	61.18802
8650.00000	61.60895	94.71276	61.60895
8700.00000	60.88115	88.49788	60.88115
8750.00000	59.96265	90.87309	59.96265
8800.00000	58.61656	83.02408	58.61656
8850.00000	58.95705	85.13208	58.95705
8900.00000	57.37027	81.02819	57.37027
8950.00000	59.42097	82.07272	59.42097
9000.00000	58.33831	97.02018	58.33831
9050.00000	58.39145	81.26709	58.39145
9100.00000	58.99535	77.43547	58.99535
9150.00000	58.62212	69.35591	58.62212
9200.00000	59.45153	75.29438	59.45153
9250.00000	56.86649	73.78681	56.86649
9300.00000	57.82369	72.72270	57.82369
9350.00000	54.91911	68.09935	54.91911
9400.00000	55.32156	72.04636	55.32156
9450.00000	57.85897	67.79360	57.85897
9500.00000	56.79517	75.91944	56.79517
9550.00000	55.25096	66.24488	55.25096
9600.00000	55.67359	67.93980	55.67359
9650.00000	54.93411	62.88845	54.93411
9700.00000	57.29649	62.10338	57.29649
9750.00000	57.51252	68.96493	57.51252
9800.00000	55.81636	61.76049	55.81636
9850.00000	56.35898	61.50096	56.35898
9900.00000	55.80283	55.44704	55.80283
9950.00000	56.71454	62.45560	56.71454
10000.00000	54.58172	68.68828	54.58172
10050.00000	54.23991	58.25763	54.23991
10100.00000	54.81966	53.02568	54.81966
10150.00000	55.92383	46.57412	55.92383
10200.00000	56.13756	56.66825	56.13756
10250.00000	54.48681	50.06012	54.48681
10300.00000	53.57626	45.55710	53.57626
10350.00000	55.13464	44.00321	55.13464
10400.00000	53.68175	49.90924	53.68175
10450.00000	54.80459	46.04741	54.80459
10500.00000	52.63865	54.10826	52.63865
10550.00000	53.09154	42.52586	53.09154
10600.00000	53.87865	41.13273	53.87865
10650.00000	53.51849	44.41643	53.51849
10700.00000	52.69522	33.01050	52.69522
10750.00000	53.19669	38.57711	53.19669
10800.00000	52.66138	25.66848	52.66138
10850.00000	53.44963	30.43463	53.44963
10900.00000	53.47572	27.25570	53.47572
10950.00000	53.24200	34.67459	53.24200
11000.00000	53.29659	18.05979	53.29659
11050.00000	52.89571	24.84806	52.89571
11100.00000	53.34820	16.72447	53.34820
11150.00000	51.25683	20.77581	51.25683
11200.00000	51.30857	19.19525	51.30857
11250.00000	51.83300	 6.62646	51.83300
11300.00000	52.77042	 8.60440	52.77042
11350.00000	51.84989	15.98177	51.84989
11400.00000	50.74550	 8.85483	50.74550
11450.00000	51.25249	 4.95488	51.25249
11500.00000	52.25428	 4.40311	52.25428
11550.00000	50.02336	 6.22558	50.02336
11600.00000	49.93638	-5.66973	49.93638
11650.00000	49.72327	-3.21279	49.72327
11700.00000	51.64891	 3.97456	51.64891
11750.00000	49.76169	-0.03893	49.76169
11800.00000	49.43817	 6.43553	49.43817
11850.00000	50.22056	 0.92102	50.22056
11900.00000	49.76862	 0.95577	49.76862
11950.00000	49.01112	-6.90145	49.01112
12000.00000	47.14426	-8.01568	47.14426
12050.00000	48.87488	-19.18261	48.87488
12100.00000	49.28700	 2.94716	49.28700
12150.00000	50.36787	-11.93964	50.36787
12200.00000	47.36495	-28.13877	47.36495
12250.00000	48.09777	-10.15028	48.09777
12300.00000	52.17124	-1.91034	52.17124
12350.00000	46.86120	 1.36462	46.86120
12400.00000	50.20640	 3.83918	50.20640
12450.00000	47.68728	-28.16822	47.68728
12500.00000	51.05058	15.39886	51.05058
12550.00000	43.87120	-3.46544	43.87120
12600.00000	50.49214	-5.26130	50.49214
12650.00000	48.47739	-28.49981	48.47739
12700.00000	46.89396	-13.11550	46.89396
12750.00000	48.47286	-21.53434	48.47286
12800.00000	48.12724	-23.56447	48.12724
12850.00000	48.27669	-29.14348	48.27669
12900.00000	49.61640	-18.54868	49.61640
12950.00000	45.96604	-27.67282	45.96604
13000.00000	48.25097	-50.76735	48.25097
13050.00000	45.38934	-26.36670	45.38934
13100.00000	42.74595	-36.55137	42.74595
13150.00000	29.94771	-0.66807	29.94771
13200.00000	45.24690	-22.96226	45.24690
13250.00000	41.42221	-10.58427	41.42221
13300.00000	39.82571	234.35782	39.82571
13350.00000	38.29408	333.41332	38.29408
13400.00000	47.52888	269.60723	47.52888
13450.00000	49.97321	359.05440	49.97321
13500.00000	44.01068	289.59874	44.01068
13550.00000	37.05992	464.55592	37.05992
13600.00000	45.84629	693.01638	45.84629
13650.00000	45.55336	680.12676	45.55336
13700.00000	38.28709	669.96814	38.28709
13750.00000	51.13374	632.06918	51.13374
13800.00000	42.99388	741.29359	42.99388
13850.00000	32.62918	716.98186	32.62918
13900.00000	47.70775	917.32290	47.70775
13950.00000	52.65976	1039.71440	52.65976
14000.00000	46.44557	1056.78361	46.44557
14050.00000	45.78547	1053.57154	45.78547
14100.00000	41.19611	1015.58150	41.19611
14150.00000	49.58599	1044.08672	49.58599
14200.00000	42.33015	1127.98418	42.33015
14250.00000	44.70481	1271.20902	44.70481
14300.00000	45.95075	1418.03299	45.95075
14350.00000	46.00084	1468.59976	46.00084
14400.00000	35.40961	1727.98444	35.40961
14450.00000	36.26981	1875.15594	36.26981
14500.00000	43.88877	1822.94606	43.88877
14550.00000	42.81329	1762.77813	42.81329
14600.00000	50.16196	1800.98171	50.16196
14650.00000	42.04213	1854.23799	42.04213
14700.00000	42.61052	1834.96948	42.61052
14750.00000	41.04776	1892.91256	41.04776
14800.00000	47.60141	2122.76228	47.60141
14850.00000	47.04341	2111.06016	47.04341
14900.00000	45.47761	2188.17922	45.47761
14950.00000	36.38389	2307.60135	36.38389
15000.00000	50.32215	2503.61937	50.32215
15050.00000	44.81380	2604.28143	44.81380
15100.00000	43.56027	2569.59474	43.56027
15150.00000	50.17754	2848.33831	50.17754
15200.00000	35.64187	2840.54500	35.64187
15250.00000	52.72592	2862.93606	52.72592
15300.00000	55.87256	2846.18979	55.87256
15350.00000	54.04577	2910.28751	54.04577
15400.00000	52.05445	2874.85915	52.05445
15450.00000	32.58082	2985.00487	32.58082
15500.00000	56.24692	3247.47627	56.24692
15550.00000	50.70875	3261.74660	50.70875
15600.00000	51.53883	3530.99098	51.53883
15650.00000	56.90271	3594.09789	56.90271
15700.00000	50.92516	3620.06399	50.92516
15750.00000	50.67985	3581.90141	50.67985
15800.00000	54.60465	3604.37973	54.60465
15850.00000	58.68243	3628.25146	58.68243
15900.00000	48.67772	3875.21204	48.67772
15950.00000	56.79251	3971.83747	56.79251
16000.00000	47.39520	3945.29596	47.39520
16050.00000	48.34422	3922.49307	48.34422
16100.00000	59.77986	3962.76388	59.77986
16150.00000	58.39596	3953.97336	58.39596
16200.00000	44.50131	3951.35298	44.50131
16250.00000	57.90732	3959.77281	57.90732
16300.00000	56.46161	3905.25392	56.46161
16350.00000	53.83415	3861.87542	53.83415
16400.00000	55.83130	3898.05570	55.83130
16450.00000	56.84365	3924.49588	56.84365
16500.00000	58.88572	3931.71261	58.88572
16550.00000	60.82621	3919.55108	60.82621
16600.00000	59.18359	3944.26734	59.18359
16650.00000	62.20658	4242.84900	62.20658
16700.00000	57.51764	4243.17184	57.51764
16750.00000	56.46553	4283.64439	56.46553
16800.00000	57.01329	4271.99470	57.01329
16850.00000	62.51947	4261.74213	62.51947
16900.00000	51.87985	4273.94480	51.87985
16950.00000	61.67242	4236.16920	61.67242
17000.00000	56.98781	4247.83234	56.98781
17050.00000	60.12112	4257.42688	60.12112
17100.00000	60.79303	4256.34807	60.79303
17150.00000	64.15492	4253.53368	64.15492
17200.00000	59.93301	4229.25708	59.93301
17250.00000	60.67450	4229.57805	60.67450
17300.00000	60.01933	4251.88657	60.01933
17350.00000	59.67822	4221.37484	59.67822
17400.00000	60.79962	4214.02236	60.79962
17450.00000	60.04872	4225.55354	60.04872
17500.00000	58.86346	4207.95347	58.86346
17550.00000	63.39334	4218.14101	63.39334
17600.00000	62.40786	4243.16061	62.40786
17650.00000	60.37182	4208.14151	60.37182
17700.00000	62.07271	4205.18665	62.07271
17750.00000	60.63759	4198.11952	60.63759
17800.00000	58.49216	4179.05673	58.49216
17850.00000	62.06229	4202.87936	62.06229
17900.00000	59.84833	4197.73450	59.84833
17950.00000	58.49374	4168.61857	58.49374
18000.00000	63.80171	4191.19886	63.80171
18050.00000	58.01095	4182.33764	58.01095
18100.00000	60.64134	4166.14345	60.64134
18150.00000	62.70065	4169.84966	62.70065
18200.00000	61.67216	4153.45156	61.67216
18250.00000	60.62784	4175.89922	60.62784
18300.00000	62.22752	4173.32670	62.22752
18350.00000	64.00925	4171.18337	64.00925
18400.00000	60.58612	4185.76259	60.58612
18450.00000	61.91213	4142.38444	61.91213
18500.00000	60.75092	4154.45140	60.75092
18550.00000	62.03623	4157.18563	62.03623
18600.00000	60.57904	4152.79110	60.57904
18650.00000	59.87505	4158.91303	59.87505
18700.00000	64.32900	4150.31947	64.32900
18750.00000	63.60229	4145.49687	63.60229
18800.00000	60.38873	4146.90553	60.38873
18850.00000	65.85461	4122.74510	65.85461
18900.00000	61.73282	4153.18623	61.73282
18950.00000	60.16123	4115.26503	60.16123
19000.00000	59.01921	4119.39539	59.01921
19050.00000	58.03161	4141.01673	58.03161
19100.00000	63.23054	4123.20089	63.23054
19150.00000	60.71827	4111.98490	60.71827
19200.00000	59.79732	4134.04904	59.79732
19250.00000	59.30996	4101.60822	59.30996
19300.00000	61.41531	4118.95271	61.41531
19350.00000	60.05823	4099.79958	60.05823
19400.00000	61.16796	4098.89445	61.16796
19450.00000	60.33091	4118.88804	60.33091
19500.00000	62.32591	4086.28273	62.32591
19550.00000	61.68925	4112.65201	61.68925
19600.00000	60.63081	4078.73028	60.63081
19650.00000	62.25539	4102.83561	62.25539
19700.00000	62.84911	4098.80184	62.84911
19750.00000	59.98539	4087.81412	59.98539
19800.00000	60.96432	4092.84035	60.96432
19850.00000	62.17959	4083.22189	62.17959
19900.00000	64.29147	4080.35286	64.29147
19950.00000	59.79944	4083.48921	59.79944
20000.00000	62.43708	4076.40818	62.43708
20050.00000	59.88584	4084.45145	59.88584
20100.00000	61.55095	4072.39163	61.55095
20150.00000	61.51665	4080.26680	61.51665
20200.00000	59.88521	4071.58773	59.88521
20250.00000	60.93352	4066.80779	60.93352
20300.00000	59.02363	4066.54723	59.02363
20350.00000	61.75236	4055.69152	61.75236
20400.00000	61.56723	4052.76639	61.56723
20450.00000	60.35316	4048.74531	60.35316
20500.00000	59.53062	4064.50967	59.53062
20550.00000	57.73749	4055.80964	57.73749
20600.00000	59.72722	4050.71964	59.72722
20650.00000	58.13560	4047.98040	58.13560
20700.00000	60.52155	4046.18148	60.52155
20750.00000	60.25106	4055.57195	60.25106
20800.00000	59.41386	4029.99484	59.41386
20850.00000	59.49360	4058.02193	59.49360
20900.00000	58.68805	4047.36650	58.68805
20950.00000	58.80862	4045.02571	58.80862
21000.00000	58.53966	4038.34217	58.53966
21050.00000	59.78404	4040.65379	59.78404
21100.00000	59.38161	4047.86677	59.38161
21150.00000	59.34074	4045.74913	59.34074
21200.00000	57.66486	4044.10631	57.66486
21250.00000	58.00870	4047.07479	58.00870
21300.00000	59.69677	4042.28496	59.69677
21350.00000	60.14600	4037.91101	60.14600
21400.00000	59.78345	4025.88447	59.78345
21450.00000	58.26234	4039.21955	58.26234
21500.00000	61.66133	4022.87651	61.66133
21550.00000	59.62115	4021.07999	59.62115
21600.00000	58.89977	4030.23005	58.89977
21650.00000	63.57858	4022.16882	63.57858
21700.00000	58.89428	4021.12145	58.89428
21750.00000	61.31539	4004.14610	61.31539
21800.00000	61.39870	3998.14203	61.39870
21850.00000	60.65479	4001.27167	60.65479
21900.00000	60.93803	4013.70843	60.93803
21950.00000	59.48974	4001.38648	59.48974
22000.00000	63.12915	4022.47527	63.12915
22050.00000	59.28969	4003.58210	59.28969
22100.00000	63.44840	4005.56807	63.44840
22150.00000	58.15854	4009.12484	58.15854
22200.00000	63.66212	4002.11649	63.66212
22250.00000	58.55126	3988.29572	58.55126
22300.00000	65.10818	3990.52283	65.10818
22350.00000	60.96157	4325.49619	60.96157
22400.00000	63.57499	4334.62851	63.57499
22450.00000	62.11985	4355.28054	62.11985
22500.00000	61.36320	4672.66005	61.36320
22550.00000	60.54142	4716.07236	60.54142
22600.00000	56.14316	5028.18002	56.14316
22650.00000	61.44506	5052.28109	61.44506
22700.00000	55.89997	5076.52106	55.89997
22750.00000	57.37047	5404.13975	57.37047
22800.00000	54.98402	5428.74307	54.98402
22850.00000	61.02575	5766.77676	61.02575
22900.00000	59.70378	5790.71692	59.70378
22950.00000	59.06540	6120.45711	59.06540
23000.00000	62.57633	6115.50234	62.57633
23050.00000	65.73053	6125.55318	65.73053
23100.00000	60.63536	6143.00039	60.63536
23150.00000	61.42417	6455.53871	61.42417
23200.00000	60.98411	6488.52507	60.98411
23250.00000	59.37716	6801.24975	59.37716
23300.00000	64.42997	6835.92155	64.42997
23350.00000	59.10908	6828.21046	59.10908
23400.00000	65.27611	6821.78051	65.27611
23450.00000	60.71577	6831.62760	60.71577
23500.00000	62.90844	7166.06092	62.90844
23550.00000	65.06981	7179.84158	65.06981
23600.00000	64.36484	7197.61838	64.36484
23650.00000	55.21845	7195.74972	55.21845
23700.00000	61.82024	7509.11276	61.82024
23750.00000	52.21372	7629.24429	52.21372
23800.00000	64.38303	7884.21123	64.38303
