---ACOUSTIC CALIBRATION---
Filename: C:\Data\AZH DATA\AZH61\RightPrimary.calib
Date: 8/27/2019 3:08:51 PM
Format: 4
Probe Tube Correction File: C:\Data\Probe Tube Calibrations\50_ProbeTube.calib
Experiment VIs: 850
EPL_CFTS.exe V12.0.1 (2012)
DAQmx V9.6

Attenuation (dB): 40.000000
Min Freq (Hz): 50.000000
Max Freq (Hz): 49950.000000
Freq Step (Hz): 50.000000
Sample Rate (Hz): 100000.000000
[Smoothing]
Method=None
MA.Iterations=0
MA.Length=0
Loess.Length=0
Loess.Type=Linear
Loess.Robust=FALSE


Freq(Hz)	Mag(dB)	Phase(deg)	Unsmoothed(dB)

50.00000	101.73201	356.27855	101.73201
100.00000	87.11221	360.86703	87.11221
150.00000	71.98751	530.02735	71.98751
200.00000	75.55609	481.48679	75.55609
250.00000	88.18189	465.58826	88.18189
300.00000	83.69291	413.93918	83.69291
350.00000	86.86268	398.17616	86.86268
400.00000	85.05004	368.96409	85.05004
450.00000	84.36216	386.27061	84.36216
500.00000	92.13618	374.93144	92.13618
550.00000	93.24694	371.03065	93.24694
600.00000	94.62703	365.31800	94.62703
650.00000	95.75399	349.40192	95.75399
700.00000	99.12513	331.18520	99.12513
750.00000	100.94359	317.45255	100.94359
800.00000	101.47708	290.38098	101.47708
850.00000	101.33030	275.88322	101.33030
900.00000	99.48986	258.73012	99.48986
950.00000	97.69209	257.32961	97.69209
1000.00000	96.02453	257.58424	96.02453
1050.00000	93.83736	271.37787	93.83736
1100.00000	96.22984	293.50762	96.22984
1150.00000	98.58700	300.58561	98.58700
1200.00000	101.75155	297.98169	101.75155
1250.00000	103.18708	291.05325	103.18708
1300.00000	104.92167	285.93347	104.92167
1350.00000	106.15126	273.04926	106.15126
1400.00000	106.95416	267.83828	106.95416
1450.00000	107.93326	260.17319	107.93326
1500.00000	109.09065	254.37160	109.09065
1550.00000	109.85203	245.85167	109.85203
1600.00000	111.21541	236.27689	111.21541
1650.00000	112.26167	219.68520	112.26167
1700.00000	110.96945	209.61587	110.96945
1750.00000	110.79360	203.28183	110.79360
1800.00000	110.58636	198.75058	110.58636
1850.00000	110.69154	197.44771	110.69154
1900.00000	111.80708	193.95755	111.80708
1950.00000	112.53802	180.54913	112.53802
2000.00000	111.64728	168.70819	111.64728
2050.00000	110.23344	173.04402	110.23344
2100.00000	112.11402	172.89254	112.11402
2150.00000	112.71013	161.49831	112.71013
2200.00000	112.65103	151.39604	112.65103
2250.00000	112.07333	144.78208	112.07333
2300.00000	112.15332	139.17223	112.15332
2350.00000	111.88615	132.64856	111.88615
2400.00000	111.64252	127.04853	111.64252
2450.00000	111.34966	120.67891	111.34966
2500.00000	110.91528	115.59730	110.91528
2550.00000	110.57107	109.82458	110.57107
2600.00000	110.00294	105.47273	110.00294
2650.00000	109.52174	101.59928	109.52174
2700.00000	109.03781	97.91142	109.03781
2750.00000	108.30922	94.93532	108.30922
2800.00000	107.82192	91.55399	107.82192
2850.00000	107.22185	90.50843	107.22185
2900.00000	106.62214	87.99880	106.62214
2950.00000	106.00403	86.91844	106.00403
3000.00000	105.22098	86.37748	105.22098
3050.00000	104.44359	84.81931	104.44359
3100.00000	103.66730	86.32645	103.66730
3150.00000	102.46154	86.99431	102.46154
3200.00000	101.09665	93.75548	101.09665
3250.00000	100.57327	103.97679	100.57327
3300.00000	100.16580	115.98570	100.16580
3350.00000	100.38872	130.92586	100.38872
3400.00000	102.16515	148.19472	102.16515
3450.00000	104.73029	154.96708	104.73029
3500.00000	107.23220	155.78557	107.23220
3550.00000	109.31190	152.82836	109.31190
3600.00000	111.10340	149.35313	111.10340
3650.00000	112.54396	144.39887	112.54396
3700.00000	113.84464	138.68878	113.84464
3750.00000	115.23242	133.35190	115.23242
3800.00000	116.34465	126.57817	116.34465
3850.00000	117.36259	119.35733	117.36259
3900.00000	118.26318	112.83085	118.26318
3950.00000	119.21344	105.44013	119.21344
4000.00000	120.02171	98.08324	120.02171
4050.00000	120.77351	90.51539	120.77351
4100.00000	121.62755	83.25544	121.62755
4150.00000	122.56862	74.66606	122.56862
4200.00000	123.28850	64.59399	123.28850
4250.00000	123.92895	53.57013	123.92895
4300.00000	124.34543	41.49615	124.34543
4350.00000	124.44934	29.11778	124.44934
4400.00000	124.27852	17.53909	124.27852
4450.00000	123.94044	 7.04541	123.94044
4500.00000	123.52672	-2.54579	123.52672
4550.00000	123.09258	-11.46842	123.09258
4600.00000	122.61313	-19.83962	122.61313
4650.00000	122.15423	-27.63351	122.15423
4700.00000	121.62403	-36.12540	121.62403
4750.00000	121.01609	-44.61208	121.01609
4800.00000	120.17875	-52.95719	120.17875
4850.00000	119.05659	-60.78397	119.05659
4900.00000	117.74241	-66.01220	117.74241
4950.00000	116.35750	-69.00416	116.35750
5000.00000	115.16586	-69.62957	115.16586
5050.00000	114.05700	-68.96533	114.05700
5100.00000	112.92422	-65.43547	112.92422
5150.00000	112.83462	-60.08507	112.83462
5200.00000	112.11641	-56.03527	112.11641
5250.00000	113.38741	-43.48453	113.38741
5300.00000	115.80141	-51.25249	115.80141
5350.00000	116.00292	-63.67928	116.00292
5400.00000	115.49463	-71.35165	115.49463
5450.00000	114.95799	-75.78369	114.95799
5500.00000	114.57568	-79.45218	114.57568
5550.00000	114.29713	-81.60356	114.29713
5600.00000	114.01926	-84.26197	114.01926
5650.00000	113.81361	-86.42592	113.81361
5700.00000	113.61518	-89.16189	113.61518
5750.00000	113.46407	-91.47446	113.46407
5800.00000	113.30488	-93.96059	113.30488
5850.00000	113.11605	-95.96929	113.11605
5900.00000	112.98944	-98.70394	112.98944
5950.00000	112.96653	-100.57690	112.96653
6000.00000	112.72387	-102.99866	112.72387
6050.00000	112.82672	-105.24191	112.82672
6100.00000	112.64483	-107.25795	112.64483
6150.00000	112.67584	-109.79631	112.67584
6200.00000	112.56713	-112.66872	112.56713
6250.00000	112.61467	-114.58905	112.61467
6300.00000	112.47326	-117.83577	112.47326
6350.00000	112.50123	-120.73560	112.50123
6400.00000	112.35213	-123.09736	112.35213
6450.00000	112.34085	-126.39749	112.34085
6500.00000	112.22346	-129.16918	112.22346
6550.00000	112.18941	-131.53077	112.18941
6600.00000	112.11321	-134.32259	112.11321
6650.00000	112.03564	-136.77848	112.03564
6700.00000	111.96401	-139.56199	111.96401
6750.00000	111.96886	-142.08576	111.96886
6800.00000	111.86929	-144.73939	111.86929
6850.00000	111.84064	-147.40433	111.84064
6900.00000	111.79374	-150.39262	111.79374
6950.00000	111.80505	-153.26539	111.80505
7000.00000	111.72125	-155.19555	111.72125
7050.00000	111.78385	-158.46066	111.78385
7100.00000	111.73066	-161.58466	111.73066
7150.00000	111.69128	-164.54388	111.69128
7200.00000	111.69170	-167.46777	111.69170
7250.00000	111.62017	-170.74002	111.62017
7300.00000	111.59760	-174.05535	111.59760
7350.00000	111.57871	-177.10348	111.57871
7400.00000	111.52534	-181.15117	111.52534
7450.00000	111.49253	-184.14109	111.49253
7500.00000	111.38295	-187.83424	111.38295
7550.00000	111.32924	-191.21627	111.32924
7600.00000	111.23903	-194.84665	111.23903
7650.00000	111.08816	-198.03106	111.08816
7700.00000	111.04227	-202.04112	111.04227
7750.00000	110.88177	-205.30296	110.88177
7800.00000	110.74626	-208.91283	110.74626
7850.00000	110.58180	-212.34057	110.58180
7900.00000	110.44566	-215.57993	110.44566
7950.00000	110.23359	-219.27658	110.23359
8000.00000	110.10634	-222.89678	110.10634
8050.00000	109.83049	-226.31954	109.83049
8100.00000	109.72437	-229.82793	109.72437
8150.00000	109.46048	-232.52970	109.46048
8200.00000	109.21434	-235.69254	109.21434
8250.00000	108.91599	-239.58239	108.91599
8300.00000	108.77020	-242.29805	108.77020
8350.00000	108.31953	-245.58621	108.31953
8400.00000	108.19929	-248.34813	108.19929
8450.00000	107.61554	-252.02102	107.61554
8500.00000	107.53321	-254.65163	107.53321
8550.00000	107.00890	-257.55732	107.00890
8600.00000	106.86970	-260.75349	106.86970
8650.00000	106.37912	-263.16118	106.37912
8700.00000	106.16358	-266.53000	106.16358
8750.00000	105.89593	-268.15545	105.89593
8800.00000	105.45096	-269.77315	105.45096
8850.00000	105.26737	-273.20499	105.26737
8900.00000	104.90164	-274.02953	104.90164
8950.00000	104.73737	-275.63955	104.73737
9000.00000	104.05221	-278.44168	104.05221
9050.00000	104.06967	-279.11441	104.06967
9100.00000	103.28874	-283.39877	103.28874
9150.00000	103.40357	-283.67052	103.40357
9200.00000	102.84756	-287.03612	102.84756
9250.00000	102.81362	-288.51321	102.81362
9300.00000	102.53146	-291.22419	102.53146
9350.00000	102.40248	-292.41028	102.40248
9400.00000	102.27125	-293.60836	102.27125
9450.00000	101.92749	-293.77404	101.92749
9500.00000	101.95894	-294.33144	101.95894
9550.00000	101.80635	-293.61270	101.80635
9600.00000	101.88410	-295.86111	101.88410
9650.00000	101.66420	-297.27773	101.66420
9700.00000	101.36915	-298.32220	101.36915
9750.00000	101.28464	-300.39803	101.28464
9800.00000	101.03701	-301.95004	101.03701
9850.00000	100.94897	-303.62126	100.94897
9900.00000	100.69919	-305.79271	100.69919
9950.00000	100.68581	-306.42938	100.68581
10000.00000	100.62770	-309.45086	100.62770
10050.00000	100.52345	-309.85428	100.52345
10100.00000	100.49390	-311.92827	100.49390
10150.00000	100.19200	-313.13129	100.19200
10200.00000	100.13743	-314.54127	100.13743
10250.00000	99.77143	-316.73654	99.77143
10300.00000	99.79873	-318.55602	99.79873
10350.00000	99.57060	-321.28076	99.57060
10400.00000	99.30453	-322.48712	99.30453
10450.00000	99.33060	-326.89827	99.33060
10500.00000	99.34244	-327.86680	99.34244
10550.00000	99.29246	-331.00512	99.29246
10600.00000	99.23200	-332.12972	99.23200
10650.00000	99.15007	-334.06577	99.15007
10700.00000	99.12154	-336.60413	99.12154
10750.00000	98.94440	-337.99521	98.94440
10800.00000	98.79959	-340.78008	98.79959
10850.00000	98.60216	-342.97343	98.60216
10900.00000	98.44751	-345.70765	98.44751
10950.00000	98.25918	-347.33127	98.25918
11000.00000	98.10401	-350.24271	98.10401
11050.00000	97.90095	-352.05148	97.90095
11100.00000	97.57499	-355.39128	97.57499
11150.00000	97.41286	-356.44883	97.41286
11200.00000	97.07238	-358.88314	97.07238
11250.00000	96.87918	-360.22450	96.87918
11300.00000	96.42163	-362.75574	96.42163
11350.00000	96.20288	-364.15335	96.20288
11400.00000	95.79765	-366.31250	95.79765
11450.00000	95.50816	-368.40747	95.50816
11500.00000	95.37958	-369.70188	95.37958
11550.00000	94.99104	-370.15438	94.99104
11600.00000	94.87134	-372.20102	94.87134
11650.00000	94.58009	-373.24573	94.58009
11700.00000	94.43473	-372.41127	94.43473
11750.00000	94.33386	-375.09224	94.33386
11800.00000	93.94624	-375.36132	93.94624
11850.00000	94.30504	-376.25119	94.30504
11900.00000	93.26403	-376.23523	93.26403
11950.00000	93.74427	-378.40511	93.74427
12000.00000	93.20015	-378.10992	93.20015
12050.00000	93.07940	-377.83679	93.07940
12100.00000	92.92583	-381.68480	92.92583
12150.00000	92.73880	-381.52540	92.73880
12200.00000	92.84677	-384.07831	92.84677
12250.00000	92.66998	-382.79854	92.66998
12300.00000	93.63586	-387.80295	93.63586
12350.00000	92.64617	-385.02246	92.64617
12400.00000	92.17486	-388.43397	92.17486
12450.00000	92.30162	-385.90669	92.30162
12500.00000	92.06845	-388.64765	92.06845
12550.00000	91.81187	-392.43100	91.81187
12600.00000	91.77366	-390.81059	91.77366
12650.00000	91.63989	-397.73514	91.63989
12700.00000	91.40400	-394.39788	91.40400
12750.00000	91.43897	-398.65345	91.43897
12800.00000	91.02779	-398.05755	91.02779
12850.00000	90.67343	-399.68624	90.67343
12900.00000	90.14314	-400.92390	90.14314
12950.00000	90.38973	-404.32562	90.38973
13000.00000	89.81247	-401.99668	89.81247
13050.00000	89.90556	-406.32896	89.90556
13100.00000	88.99483	-405.81952	88.99483
13150.00000	89.53622	-409.40569	89.53622
13200.00000	88.83902	-408.00809	88.83902
13250.00000	88.67219	-405.21865	88.67219
13300.00000	88.40245	-407.28289	88.40245
13350.00000	87.80900	-404.65232	87.80900
13400.00000	88.17902	-407.03793	88.17902
13450.00000	87.54118	-405.72448	87.54118
13500.00000	87.42016	-403.86247	87.42016
13550.00000	87.40100	-403.96340	87.40100
13600.00000	87.06116	-406.93619	87.06116
13650.00000	87.03245	-401.10386	87.03245
13700.00000	86.82442	-401.93583	86.82442
13750.00000	86.53045	-403.89933	86.53045
13800.00000	86.10801	-401.48657	86.10801
13850.00000	86.48873	-405.13578	86.48873
13900.00000	85.92564	-400.75657	85.92564
13950.00000	86.10244	-403.05252	86.10244
14000.00000	86.34513	-399.76678	86.34513
14050.00000	86.32482	-397.72197	86.32482
14100.00000	86.18217	-396.61270	86.18217
14150.00000	86.10275	-396.19379	86.10275
14200.00000	86.39455	-398.31399	86.39455
14250.00000	86.50062	-394.86151	86.50062
14300.00000	86.80045	-395.44458	86.80045
14350.00000	86.60929	-391.02724	86.60929
14400.00000	86.47937	-392.16534	86.47937
14450.00000	86.09278	-388.30316	86.09278
14500.00000	86.91097	-391.44103	86.91097
14550.00000	86.31681	-387.53015	86.31681
14600.00000	86.83271	-389.26324	86.83271
14650.00000	87.12844	-388.00751	87.12844
14700.00000	87.27508	-388.38279	87.27508
14750.00000	87.39057	-388.10654	87.39057
14800.00000	87.59266	-386.03531	87.59266
14850.00000	87.87688	-384.22598	87.87688
14900.00000	88.73657	-384.56110	88.73657
14950.00000	88.21946	-384.51823	88.21946
15000.00000	89.06047	-383.62434	89.06047
15050.00000	89.12880	-382.45049	89.12880
15100.00000	89.43325	-379.87165	89.43325
15150.00000	89.87932	-381.53235	89.87932
15200.00000	89.93772	-379.94932	89.93772
15250.00000	90.22090	-381.49012	90.22090
15300.00000	91.01361	-381.40931	91.01361
15350.00000	91.43497	-381.48980	91.43497
15400.00000	91.59183	-380.12137	91.59183
15450.00000	91.93291	-379.96528	91.93291
15500.00000	92.47298	-382.57167	92.47298
15550.00000	92.91667	-382.76374	92.91667
15600.00000	93.41087	-384.40006	93.41087
15650.00000	93.83840	-384.02796	93.83840
15700.00000	94.20136	-385.42178	94.20136
15750.00000	94.79119	-387.18461	94.79119
15800.00000	95.25113	-386.95955	95.25113
15850.00000	95.70920	-388.62749	95.70920
15900.00000	95.89059	-390.48600	95.89059
15950.00000	96.52400	-392.17021	96.52400
16000.00000	96.95586	-394.87863	96.95586
16050.00000	97.45114	-395.70826	97.45114
16100.00000	97.81520	-398.24404	97.81520
16150.00000	98.11291	-400.18252	98.11291
16200.00000	98.52778	-403.27787	98.52778
16250.00000	99.04160	-405.23881	99.04160
16300.00000	99.49869	-408.71114	99.49869
16350.00000	99.92297	-410.67892	99.92297
16400.00000	100.27425	-413.11638	100.27425
16450.00000	100.62543	-415.55898	100.62543
16500.00000	100.87714	-418.90948	100.87714
16550.00000	101.31653	-421.97020	101.31653
16600.00000	101.72881	-425.37988	101.72881
16650.00000	101.92705	-428.34635	101.92705
16700.00000	102.28239	-431.01534	102.28239
16750.00000	102.48741	-434.97427	102.48741
16800.00000	102.73775	-438.30529	102.73775
16850.00000	103.14257	-441.54304	103.14257
16900.00000	103.36646	-445.31900	103.36646
16950.00000	103.57431	-448.61247	103.57431
17000.00000	103.68192	-452.19247	103.68192
17050.00000	103.94288	-454.66915	103.94288
17100.00000	104.02553	-457.52275	104.02553
17150.00000	104.29684	-461.44715	104.29684
17200.00000	104.48001	-464.68513	104.48001
17250.00000	104.61332	-468.27333	104.61332
17300.00000	104.79002	-471.75335	104.79002
17350.00000	104.82079	-474.42173	104.82079
17400.00000	105.07853	-477.94874	105.07853
17450.00000	105.11418	-481.71119	105.11418
17500.00000	105.30178	-484.80227	105.30178
17550.00000	105.45456	-488.11701	105.45456
17600.00000	105.68414	-491.10380	105.68414
17650.00000	105.74455	-495.29394	105.74455
17700.00000	105.82282	-498.68532	105.82282
17750.00000	106.03647	-501.53182	106.03647
17800.00000	106.02450	-505.80973	106.02450
17850.00000	106.13292	-508.76961	106.13292
17900.00000	106.17407	-512.18206	106.17407
17950.00000	106.33293	-516.08164	106.33293
18000.00000	106.37162	-520.09005	106.37162
18050.00000	106.54723	-523.10231	106.54723
18100.00000	106.50659	-527.11704	106.50659
18150.00000	106.53997	-530.23620	106.53997
18200.00000	106.48739	-534.20425	106.48739
18250.00000	106.58166	-537.02762	106.58166
18300.00000	106.61035	-540.63120	106.61035
18350.00000	106.59347	-543.87680	106.59347
18400.00000	106.53265	-547.68219	106.53265
18450.00000	106.46835	-552.06176	106.46835
18500.00000	106.45743	-555.27307	106.45743
18550.00000	106.40824	-558.17112	106.40824
18600.00000	106.43548	-561.88338	106.43548
18650.00000	106.24452	-564.68812	106.24452
18700.00000	106.18887	-568.25675	106.18887
18750.00000	106.18585	-571.42689	106.18585
18800.00000	106.22237	-573.86453	106.22237
18850.00000	106.00934	-577.12233	106.00934
18900.00000	105.93146	-579.86391	105.93146
18950.00000	105.89144	-583.27081	105.89144
19000.00000	105.66607	-585.63242	105.66607
19050.00000	105.74023	-588.51689	105.74023
19100.00000	105.62498	-591.14792	105.62498
19150.00000	105.70682	-593.81858	105.70682
19200.00000	105.61644	-595.99937	105.61644
19250.00000	105.55623	-599.85287	105.55623
19300.00000	105.42718	-601.79241	105.42718
19350.00000	105.41089	-604.59396	105.41089
19400.00000	105.34065	-607.11287	105.34065
19450.00000	105.37091	-609.35626	105.37091
19500.00000	105.25097	-612.65102	105.25097
19550.00000	105.22650	-615.28571	105.22650
19600.00000	105.25613	-618.46053	105.25613
19650.00000	105.14143	-620.67894	105.14143
19700.00000	105.00280	-623.45275	105.00280
19750.00000	104.93130	-625.64285	104.93130
19800.00000	104.96855	-629.19987	104.96855
19850.00000	104.93357	-631.61967	104.93357
19900.00000	104.82340	-634.97455	104.82340
19950.00000	104.72492	-637.61242	104.72492
20000.00000	104.66814	-640.43389	104.66814
20050.00000	104.57174	-643.03220	104.57174
20100.00000	104.40494	-645.70862	104.40494
20150.00000	104.37454	-647.49744	104.37454
20200.00000	104.24737	-651.04081	104.24737
20250.00000	104.08405	-653.34054	104.08405
20300.00000	103.88164	-655.97757	103.88164
20350.00000	103.83168	-658.61692	103.83168
20400.00000	103.62777	-660.16419	103.62777
20450.00000	103.41141	-662.62100	103.41141
20500.00000	103.32114	-665.05091	103.32114
20550.00000	102.93930	-666.36912	102.93930
20600.00000	102.87610	-668.16416	102.87610
20650.00000	102.72035	-669.77338	102.72035
20700.00000	102.50020	-671.39751	102.50020
20750.00000	102.42186	-672.58029	102.42186
20800.00000	102.24197	-673.66321	102.24197
20850.00000	102.17638	-674.82303	102.17638
20900.00000	102.01060	-675.75859	102.01060
20950.00000	101.91643	-676.12345	101.91643
21000.00000	101.88574	-676.75483	101.88574
21050.00000	102.02236	-677.16012	102.02236
21100.00000	102.01817	-677.59087	102.01817
21150.00000	102.15389	-678.51968	102.15389
21200.00000	102.32493	-679.07585	102.32493
21250.00000	102.45791	-681.32545	102.45791
21300.00000	102.67255	-682.20194	102.67255
21350.00000	102.82207	-683.55513	102.82207
21400.00000	102.97665	-685.88679	102.97665
21450.00000	103.13432	-687.93948	103.13432
21500.00000	103.27992	-690.65849	103.27992
21550.00000	103.30888	-692.79690	103.30888
21600.00000	103.49409	-695.42896	103.49409
21650.00000	103.52016	-698.30891	103.52016
21700.00000	103.54532	-700.70601	103.54532
21750.00000	103.59584	-703.16850	103.59584
21800.00000	103.61430	-705.96171	103.61430
21850.00000	103.55854	-708.34661	103.55854
21900.00000	103.55232	-710.98865	103.55232
21950.00000	103.49248	-713.14503	103.49248
22000.00000	103.52189	-715.33645	103.52189
22050.00000	103.48669	-717.24288	103.48669
22100.00000	103.43004	-719.59091	103.43004
22150.00000	103.37534	-721.56532	103.37534
22200.00000	103.40869	-723.65004	103.40869
22250.00000	103.33192	-725.19908	103.33192
22300.00000	103.19228	-727.48664	103.19228
22350.00000	103.30006	-729.44781	103.30006
22400.00000	103.30731	-731.69577	103.30731
22450.00000	103.24823	-733.52975	103.24823
22500.00000	103.09796	-734.37788	103.09796
22550.00000	103.12954	-736.69196	103.12954
22600.00000	103.11753	-739.57020	103.11753
22650.00000	103.12390	-741.44879	103.12390
22700.00000	103.06313	-743.06242	103.06313
22750.00000	103.03592	-743.26442	103.03592
22800.00000	103.07015	-747.13776	103.07015
