---ACOUSTIC CALIBRATION---
Filename: C:\Data\AZH DATA\AZH61\RightPrimary.calib
Date: 8/27/2019 3:34:29 PM
Format: 4
Probe Tube Correction File: C:\Data\Probe Tube Calibrations\50_ProbeTube.calib
Experiment VIs: 850
EPL_CFTS.exe V12.0.1 (2012)
DAQmx V9.6

Attenuation (dB): 40.000000
Min Freq (Hz): 50.000000
Max Freq (Hz): 49950.000000
Freq Step (Hz): 50.000000
Sample Rate (Hz): 100000.000000
[Smoothing]
Method=None
MA.Iterations=0
MA.Length=0
Loess.Length=0
Loess.Type=Linear
Loess.Robust=FALSE


Freq(Hz)	Mag(dB)	Phase(deg)	Unsmoothed(dB)

50.00000	84.53739	431.35717	84.53739
100.00000	75.19481	573.65401	75.19481
150.00000	78.40309	488.69847	78.40309
200.00000	82.61247	453.02349	82.61247
250.00000	90.30484	454.36720	90.30484
300.00000	86.36565	387.46498	86.36565
350.00000	85.27715	387.42755	85.27715
400.00000	87.14643	387.08079	87.14643
450.00000	87.84131	369.52122	87.84131
500.00000	89.31244	378.84869	89.31244
550.00000	92.93670	374.08322	92.93670
600.00000	96.21531	362.45259	96.21531
650.00000	98.25037	352.49539	98.25037
700.00000	100.26206	337.32241	100.26206
750.00000	102.12121	318.25746	102.12121
800.00000	102.97975	293.38322	102.97975
850.00000	102.29877	277.76958	102.29877
900.00000	100.65727	262.28886	100.65727
950.00000	98.78097	259.00333	98.78097
1000.00000	97.46022	259.00045	97.46022
1050.00000	95.14898	274.36820	95.14898
1100.00000	97.14409	297.66520	97.14409
1150.00000	100.00674	301.27691	100.00674
1200.00000	102.69920	298.71644	102.69920
1250.00000	104.31911	290.90614	104.31911
1300.00000	106.10542	286.35313	106.10542
1350.00000	107.33491	276.28586	107.33491
1400.00000	108.19460	269.66248	108.19460
1450.00000	109.22439	262.74131	109.22439
1500.00000	110.36936	255.91071	110.36936
1550.00000	111.22963	246.55648	111.22963
1600.00000	112.60213	236.24567	112.60213
1650.00000	113.55759	220.43538	113.55759
1700.00000	112.34783	210.44654	112.34783
1750.00000	112.13844	204.79493	112.13844
1800.00000	111.91538	199.55073	111.91538
1850.00000	112.07913	198.80162	112.07913
1900.00000	113.28691	194.28365	113.28691
1950.00000	113.92370	180.81484	113.92370
2000.00000	112.99940	168.64342	112.99940
2050.00000	111.62833	172.77012	111.62833
2100.00000	113.44837	173.12247	113.44837
2150.00000	114.08472	161.20529	114.08472
2200.00000	113.96953	150.99232	113.96953
2250.00000	113.37785	144.05080	113.37785
2300.00000	113.47650	138.76546	113.47650
2350.00000	113.22609	131.94530	113.22609
2400.00000	112.92387	126.30542	112.92387
2450.00000	112.63323	119.95916	112.63323
2500.00000	112.22219	115.00157	112.22219
2550.00000	111.80947	109.47692	111.80947
2600.00000	111.27324	105.00580	111.27324
2650.00000	110.73368	101.52775	110.73368
2700.00000	110.19542	97.57427	110.19542
2750.00000	109.62595	94.40020	109.62595
2800.00000	108.99523	92.07061	108.99523
2850.00000	108.32371	90.37944	108.32371
2900.00000	107.75998	88.34421	107.75998
2950.00000	107.03034	87.14784	107.03034
3000.00000	106.27533	86.61675	106.27533
3050.00000	105.34751	86.78143	105.34751
3100.00000	104.44790	89.39990	104.44790
3150.00000	103.38648	93.05717	103.38648
3200.00000	102.45990	102.76734	102.45990
3250.00000	102.27044	114.61490	102.27044
3300.00000	102.59208	126.73783	102.59208
3350.00000	103.71270	139.36467	103.71270
3400.00000	105.70157	149.67349	105.70157
3450.00000	108.02283	153.47993	108.02283
3500.00000	110.33432	152.50294	110.33432
3550.00000	112.13743	148.12733	112.13743
3600.00000	113.75436	143.49553	113.75436
3650.00000	115.11591	137.45480	115.11591
3700.00000	116.38326	131.70734	116.38326
3750.00000	117.57496	125.03395	117.57496
3800.00000	118.60685	117.31612	118.60685
3850.00000	119.43073	109.85043	119.43073
3900.00000	120.18723	102.89031	120.18723
3950.00000	120.94946	95.81059	120.94946
4000.00000	121.64613	88.37688	121.64613
4050.00000	122.33317	80.99888	122.33317
4100.00000	123.04139	73.45781	123.04139
4150.00000	123.91405	64.99482	123.91405
4200.00000	124.48648	54.89135	124.48648
4250.00000	124.99854	44.14098	124.99854
4300.00000	125.27747	32.70129	125.27747
4350.00000	125.27820	21.18985	125.27820
4400.00000	125.07678	10.61358	125.07678
4450.00000	124.74245	 0.86541	124.74245
4500.00000	124.35641	-8.04038	124.35641
4550.00000	123.94844	-16.49618	123.94844
4600.00000	123.49370	-24.33048	123.49370
4650.00000	123.09253	-31.91255	123.09253
4700.00000	122.64408	-39.85927	122.64408
4750.00000	122.08295	-48.12615	122.08295
4800.00000	121.34011	-56.55755	121.34011
4850.00000	120.31658	-64.16428	120.31658
4900.00000	119.08009	-70.07914	119.08009
4950.00000	117.76150	-73.54416	117.76150
5000.00000	116.51949	-74.51207	116.51949
5050.00000	115.47381	-74.62649	115.47381
5100.00000	114.30335	-71.50230	114.30335
5150.00000	114.18209	-65.72540	114.18209
5200.00000	113.67211	-61.56415	113.67211
5250.00000	115.11968	-52.27890	115.11968
5300.00000	116.92470	-61.50617	116.92470
5350.00000	116.84292	-72.54391	116.84292
5400.00000	116.27752	-78.73464	116.27752
5450.00000	115.79061	-82.33724	115.79061
5500.00000	115.42027	-85.10878	115.42027
5550.00000	115.13340	-87.45855	115.13340
5600.00000	114.89747	-89.73399	114.89747
5650.00000	114.70997	-91.87454	114.70997
5700.00000	114.53444	-94.18266	114.53444
5750.00000	114.40306	-96.36230	114.40306
5800.00000	114.25974	-98.65120	114.25974
5850.00000	114.14555	-100.94885	114.14555
5900.00000	114.04702	-103.15045	114.04702
5950.00000	113.96192	-105.27552	113.96192
6000.00000	113.91125	-107.28722	113.91125
6050.00000	113.87764	-109.53216	113.87764
6100.00000	113.88330	-111.97021	113.88330
6150.00000	113.88978	-114.60878	113.88978
6200.00000	113.83993	-117.45258	113.83993
6250.00000	113.80883	-120.27006	113.80883
6300.00000	113.76615	-123.09619	113.76615
6350.00000	113.70286	-126.11127	113.70286
6400.00000	113.63002	-128.74810	113.63002
6450.00000	113.58934	-131.60729	113.58934
6500.00000	113.50896	-134.37713	113.50896
6550.00000	113.44079	-137.08611	113.44079
6600.00000	113.39979	-139.77066	113.39979
6650.00000	113.35745	-142.47850	113.35745
6700.00000	113.32189	-145.30067	113.32189
6750.00000	113.30649	-148.07686	113.30649
6800.00000	113.29210	-150.87793	113.29210
6850.00000	113.26708	-153.70924	113.26708
6900.00000	113.25643	-156.59135	113.25643
6950.00000	113.23936	-159.41727	113.23936
7000.00000	113.24480	-162.38722	113.24480
7050.00000	113.24180	-165.46601	113.24180
7100.00000	113.25667	-168.75070	113.25667
7150.00000	113.26599	-171.93140	113.26599
7200.00000	113.25552	-175.35382	113.25552
7250.00000	113.24096	-178.88643	113.24096
7300.00000	113.25539	-182.53297	113.25539
7350.00000	113.21749	-186.21989	113.21749
7400.00000	113.19884	-190.18252	113.19884
7450.00000	113.14091	-194.17037	113.14091
7500.00000	113.06634	-198.26095	113.06634
7550.00000	112.99889	-202.37688	112.99889
7600.00000	112.87245	-206.65246	112.87245
7650.00000	112.72060	-210.82789	112.72060
7700.00000	112.58286	-214.96766	112.58286
7750.00000	112.36375	-219.14390	112.36375
7800.00000	112.15201	-223.28261	112.15201
7850.00000	111.91312	-227.28518	111.91312
7900.00000	111.66453	-231.08616	111.66453
7950.00000	111.38251	-235.02108	111.38251
8000.00000	111.09077	-238.81576	111.09077
8050.00000	110.78115	-242.80195	110.78115
8100.00000	110.45524	-245.82145	110.45524
8150.00000	110.05648	-249.13071	110.05648
8200.00000	109.69442	-252.01711	109.69442
8250.00000	109.29945	-255.09361	109.29945
8300.00000	108.93214	-257.96532	108.93214
8350.00000	108.53117	-260.62981	108.53117
8400.00000	108.12443	-263.72866	108.12443
8450.00000	107.67320	-266.35016	107.67320
8500.00000	107.26590	-269.10863	107.26590
8550.00000	106.92965	-271.30621	106.92965
8600.00000	106.57117	-273.93612	106.57117
8650.00000	106.22719	-276.08067	106.22719
8700.00000	105.95262	-278.74222	105.95262
8750.00000	105.59519	-279.61729	105.59519
8800.00000	105.32693	-281.51343	105.32693
8850.00000	104.99661	-282.81719	104.99661
8900.00000	104.70703	-283.84940	104.70703
8950.00000	104.37888	-285.38736	104.37888
9000.00000	103.96225	-286.65164	103.96225
9050.00000	103.62809	-288.47586	103.62809
9100.00000	103.27492	-290.14979	103.27492
9150.00000	102.94415	-292.18280	102.94415
9200.00000	102.69813	-294.32571	102.69813
9250.00000	102.44452	-296.47290	102.44452
9300.00000	102.30293	-298.50464	102.30293
9350.00000	102.21441	-300.24147	102.21441
9400.00000	102.03726	-301.13573	102.03726
9450.00000	101.97193	-301.82562	101.97193
9500.00000	101.88752	-301.67203	101.88752
9550.00000	101.86081	-301.39237	101.86081
9600.00000	101.84932	-302.42281	101.84932
9650.00000	101.64038	-303.76453	101.64038
9700.00000	101.40868	-304.40960	101.40868
9750.00000	101.23834	-306.63715	101.23834
9800.00000	101.02905	-308.20178	101.02905
9850.00000	100.91335	-309.74194	100.91335
9900.00000	100.70162	-311.99851	100.70162
9950.00000	100.66116	-313.48770	100.66116
10000.00000	100.61484	-315.46380	100.61484
10050.00000	100.56518	-316.74863	100.56518
10100.00000	100.47561	-317.77368	100.47561
10150.00000	100.29156	-319.42016	100.29156
10200.00000	100.13868	-320.65455	100.13868
10250.00000	99.93209	-322.41630	99.93209
10300.00000	99.83623	-324.28105	99.83623
10350.00000	99.61692	-326.34779	99.61692
10400.00000	99.40914	-328.92080	99.40914
10450.00000	99.41108	-331.69573	99.41108
10500.00000	99.40939	-333.99601	99.40939
10550.00000	99.39724	-336.35176	99.39724
10600.00000	99.36170	-338.07862	99.36170
10650.00000	99.29186	-339.46095	99.29186
10700.00000	99.22551	-341.82012	99.22551
10750.00000	99.14146	-343.68947	99.14146
10800.00000	98.94832	-345.47007	98.94832
10850.00000	98.77300	-348.45886	98.77300
10900.00000	98.62378	-350.62599	98.62378
10950.00000	98.47212	-352.76196	98.47212
11000.00000	98.34042	-355.06100	98.34042
11050.00000	98.06798	-357.24575	98.06798
11100.00000	97.88959	-359.66064	97.88959
11150.00000	97.61064	-361.28979	97.61064
11200.00000	97.44589	-363.02541	97.44589
11250.00000	97.13178	-365.12061	97.13178
11300.00000	96.79981	-367.20913	96.79981
11350.00000	96.54784	-368.72114	96.54784
11400.00000	96.19083	-370.45159	96.19083
11450.00000	95.99863	-372.67632	95.99863
11500.00000	95.89550	-373.66823	95.89550
11550.00000	95.60791	-374.88428	95.60791
11600.00000	95.51075	-376.84419	95.51075
11650.00000	95.26450	-377.10934	95.26450
11700.00000	95.11823	-378.08639	95.11823
11750.00000	94.97892	-379.24258	94.97892
11800.00000	94.84233	-380.83437	94.84233
11850.00000	94.78591	-381.12847	94.78591
11900.00000	94.49956	-382.76707	94.49956
11950.00000	94.43826	-383.70361	94.43826
12000.00000	94.26785	-384.56934	94.26785
12050.00000	94.02297	-385.71488	94.02297
12100.00000	93.93645	-388.12635	93.93645
12150.00000	93.79087	-389.98297	93.79087
12200.00000	93.76826	-392.07397	93.76826
12250.00000	93.69316	-393.37332	93.69316
12300.00000	94.73129	-395.20287	94.73129
12350.00000	93.45939	-396.59266	93.45939
12400.00000	93.29785	-397.35144	93.29785
12450.00000	93.05569	-398.65303	93.05569
12500.00000	92.82838	-401.02290	92.82838
12550.00000	92.60587	-402.88750	92.60587
12600.00000	92.36173	-405.45268	92.36173
12650.00000	92.33758	-407.31561	92.33758
12700.00000	92.06113	-409.11504	92.06113
12750.00000	91.79160	-410.83656	91.79160
12800.00000	91.49819	-411.68792	91.49819
12850.00000	90.91556	-412.78899	90.91556
12900.00000	90.69084	-414.88117	90.69084
12950.00000	90.48359	-416.62269	90.48359
13000.00000	90.14261	-418.64851	90.14261
13050.00000	89.86494	-418.36985	89.86494
13100.00000	89.45092	-419.22427	89.45092
13150.00000	89.15503	-420.38162	89.15503
13200.00000	88.80017	-419.67585	88.80017
13250.00000	88.42136	-420.15452	88.42136
13300.00000	88.05932	-418.33913	88.05932
13350.00000	87.84068	-418.56872	87.84068
13400.00000	87.73166	-418.38242	87.73166
13450.00000	87.28795	-417.18660	87.28795
13500.00000	87.15390	-416.09578	87.15390
13550.00000	86.74706	-415.31699	86.74706
13600.00000	86.56177	-414.18853	86.56177
13650.00000	86.50940	-412.98526	86.50940
13700.00000	86.09645	-412.96126	86.09645
13750.00000	85.87669	-411.89943	85.87669
13800.00000	85.69551	-412.99116	85.69551
13850.00000	85.61922	-412.95066	85.61922
13900.00000	85.49248	-411.80458	85.49248
13950.00000	85.53057	-409.45356	85.53057
14000.00000	85.65198	-407.15364	85.65198
14050.00000	85.63569	-406.12257	85.63569
14100.00000	85.30062	-404.78908	85.30062
14150.00000	85.39426	-404.03242	85.39426
14200.00000	85.68613	-402.89888	85.68613
14250.00000	86.05409	-399.17098	86.05409
14300.00000	86.18113	-398.82579	86.18113
14350.00000	86.26455	-395.43137	86.26455
14400.00000	86.00213	-394.99082	86.00213
14450.00000	86.12724	-392.08972	86.12724
14500.00000	86.20475	-393.20668	86.20475
14550.00000	86.55412	-392.17346	86.55412
14600.00000	86.50987	-393.04887	86.50987
14650.00000	87.14672	-390.17880	87.14672
14700.00000	87.41605	-392.62947	87.41605
14750.00000	87.74212	-390.35679	87.74212
14800.00000	87.84991	-388.85266	87.84991
14850.00000	88.26007	-388.71643	88.26007
14900.00000	88.56002	-388.79041	88.56002
14950.00000	88.99348	-389.53937	88.99348
15000.00000	89.57361	-389.49004	89.57361
15050.00000	89.70955	-387.96208	89.70955
15100.00000	90.03228	-386.35553	90.03228
15150.00000	90.40159	-387.25407	90.40159
15200.00000	90.49938	-386.94990	90.49938
15250.00000	90.75894	-389.22244	90.75894
15300.00000	91.41400	-389.69252	91.41400
15350.00000	91.85815	-390.66564	91.85815
15400.00000	92.15137	-389.69484	92.15137
15450.00000	92.49952	-390.42763	92.49952
15500.00000	92.93889	-391.33004	92.93889
15550.00000	93.37884	-393.20263	93.37884
15600.00000	93.72448	-394.87484	93.72448
15650.00000	94.31586	-394.45593	94.31586
15700.00000	94.60219	-396.85755	94.60219
15750.00000	95.19315	-397.26900	95.19315
15800.00000	95.62196	-398.04488	95.62196
15850.00000	95.91073	-399.75197	95.91073
15900.00000	96.25460	-402.15020	96.25460
15950.00000	96.78330	-404.47670	96.78330
16000.00000	97.23300	-406.57636	97.23300
16050.00000	97.73076	-408.96251	97.73076
16100.00000	97.97197	-411.92801	97.97197
16150.00000	98.33044	-413.97709	98.33044
16200.00000	98.59937	-417.33908	98.59937
16250.00000	98.91964	-419.94378	98.91964
16300.00000	99.43972	-423.08910	99.43972
16350.00000	99.77628	-426.19669	99.77628
16400.00000	100.04216	-428.45395	100.04216
16450.00000	100.32065	-431.43878	100.32065
16500.00000	100.50715	-434.44212	100.50715
16550.00000	100.76976	-438.13764	100.76976
16600.00000	101.03067	-440.98827	101.03067
16650.00000	101.15363	-444.07255	101.15363
16700.00000	101.41917	-446.71912	101.41917
16750.00000	101.52523	-450.05419	101.52523
16800.00000	101.72021	-453.30444	101.72021
16850.00000	101.97252	-456.28352	101.97252
16900.00000	102.11280	-459.40778	102.11280
16950.00000	102.30004	-462.19570	102.30004
17000.00000	102.30675	-465.19641	102.30675
17050.00000	102.54381	-467.41966	102.54381
17100.00000	102.60251	-469.21342	102.60251
17150.00000	102.88208	-472.97919	102.88208
17200.00000	103.01185	-475.76192	103.01185
17250.00000	103.12029	-479.16252	103.12029
17300.00000	103.37549	-481.76957	103.37549
17350.00000	103.35822	-484.21942	103.35822
17400.00000	103.55924	-487.11189	103.55924
17450.00000	103.60842	-490.77631	103.60842
17500.00000	103.80658	-493.58787	103.80658
17550.00000	103.94233	-496.65615	103.94233
17600.00000	104.17319	-499.26053	104.17319
17650.00000	104.26280	-503.03587	104.26280
17700.00000	104.34334	-506.28808	104.34334
17750.00000	104.56987	-508.94726	104.56987
17800.00000	104.55122	-512.65031	104.55122
17850.00000	104.68334	-515.41586	104.68334
17900.00000	104.73606	-518.76308	104.73606
17950.00000	104.89322	-522.29929	104.89322
18000.00000	104.93349	-525.94084	104.93349
18050.00000	105.10748	-528.73640	105.10748
18100.00000	105.11155	-532.58677	105.11155
18150.00000	105.14292	-535.32547	105.14292
18200.00000	105.09602	-539.14359	105.09602
18250.00000	105.21134	-541.84653	105.21134
18300.00000	105.28525	-545.13959	105.28525
18350.00000	105.27923	-548.20793	105.27923
18400.00000	105.26153	-551.72038	105.26153
18450.00000	105.23259	-556.07583	105.23259
18500.00000	105.21148	-559.06674	105.21148
18550.00000	105.19605	-561.62706	105.19605
18600.00000	105.28854	-565.21985	105.28854
18650.00000	105.12187	-568.14573	105.12187
18700.00000	105.08587	-571.67435	105.08587
18750.00000	105.08461	-574.56788	105.08461
18800.00000	105.15336	-577.05593	105.15336
18850.00000	104.98366	-580.30605	104.98366
18900.00000	104.91687	-583.15679	104.91687
18950.00000	104.89097	-586.44614	104.89097
19000.00000	104.70258	-588.86756	104.70258
19050.00000	104.78563	-591.83622	104.78563
19100.00000	104.67795	-594.29613	104.67795
19150.00000	104.77624	-596.89264	104.77624
19200.00000	104.70915	-599.17619	104.70915
19250.00000	104.62006	-602.98862	104.62006
19300.00000	104.53048	-605.07301	104.53048
19350.00000	104.49312	-607.65058	104.49312
19400.00000	104.43340	-610.17577	104.43340
19450.00000	104.47696	-612.35148	104.47696
19500.00000	104.34798	-615.78867	104.34798
19550.00000	104.33171	-618.18830	104.33171
19600.00000	104.36413	-621.36947	104.36413
19650.00000	104.27875	-623.54968	104.27875
19700.00000	104.14473	-626.29387	104.14473
19750.00000	104.07782	-628.38169	104.07782
19800.00000	104.13564	-631.86874	104.13564
19850.00000	104.10791	-634.14515	104.10791
19900.00000	103.99382	-637.61693	103.99382
19950.00000	103.90568	-640.16004	103.90568
20000.00000	103.85985	-642.63725	103.85985
20050.00000	103.80238	-645.30354	103.80238
20100.00000	103.65213	-647.96101	103.65213
20150.00000	103.62124	-649.73560	103.62124
20200.00000	103.48713	-652.99403	103.48713
20250.00000	103.34524	-655.47173	103.34524
20300.00000	103.16670	-657.86460	103.16670
20350.00000	103.10827	-660.59313	103.10827
20400.00000	102.92723	-662.11933	102.92723
20450.00000	102.70491	-664.43750	102.70491
20500.00000	102.62516	-666.91029	102.62516
20550.00000	102.26445	-668.02635	102.26445
20600.00000	102.19877	-669.70270	102.19877
20650.00000	102.07419	-671.39829	102.07419
20700.00000	101.85316	-672.73232	101.85316
20750.00000	101.78945	-673.98215	101.78945
20800.00000	101.61672	-674.84103	101.61672
20850.00000	101.56486	-675.92464	101.56486
20900.00000	101.43298	-676.75846	101.43298
20950.00000	101.36419	-676.93480	101.36419
21000.00000	101.35390	-677.44645	101.35390
21050.00000	101.50433	-677.73278	101.50433
21100.00000	101.54479	-678.00472	101.54479
21150.00000	101.74134	-678.92016	101.74134
21200.00000	101.92823	-679.49626	101.92823
21250.00000	102.11343	-681.59067	102.11343
21300.00000	102.38691	-682.52654	102.38691
21350.00000	102.57318	-684.05641	102.57318
21400.00000	102.77112	-686.46407	102.77112
21450.00000	103.00333	-688.77252	103.00333
21500.00000	103.19534	-691.55251	103.19534
21550.00000	103.25058	-693.92899	103.25058
21600.00000	103.45685	-696.90006	103.45685
21650.00000	103.51570	-699.98896	103.51570
21700.00000	103.58390	-702.52411	103.58390
21750.00000	103.63872	-705.57496	103.63872
21800.00000	103.68051	-708.52160	103.68051
21850.00000	103.61537	-711.22124	103.61537
21900.00000	103.66048	-714.05512	103.66048
21950.00000	103.57309	-716.43236	103.57309
22000.00000	103.61928	-719.08218	103.61928
22050.00000	103.55200	-721.14064	103.55200
22100.00000	103.49369	-723.75124	103.49369
22150.00000	103.41370	-726.07498	103.41370
22200.00000	103.45634	-728.36959	103.45634
22250.00000	103.38063	-730.20060	103.38063
22300.00000	103.23489	-732.51886	103.23489
22350.00000	103.31885	-734.73372	103.31885
22400.00000	103.29690	-737.11526	103.29690
22450.00000	103.22134	-738.78947	103.22134
22500.00000	103.11327	-740.26220	103.11327
22550.00000	103.11337	-742.44247	103.11337
22600.00000	103.06423	-745.13376	103.06423
22650.00000	103.06194	-747.60484	103.06194
22700.00000	103.03271	-749.25095	103.03271
22750.00000	102.98075	-749.58437	102.98075
22800.00000	102.99853	-753.43627	102.99853
