---ACOUSTIC CALIBRATION---
Filename: C:\Data\AZH DATA\AZH61\RightSecondary.calib
Date: 8/27/2019 3:31:10 PM
Format: 4
Probe Tube Correction File: C:\Data\Probe Tube Calibrations\50_ProbeTube.calib
Experiment VIs: 850
EPL_CFTS.exe V12.0.1 (2012)
DAQmx V9.6

Attenuation (dB): 40.000000
Min Freq (Hz): 50.000000
Max Freq (Hz): 49950.000000
Freq Step (Hz): 50.000000
Sample Rate (Hz): 100000.000000
[Smoothing]
Method=None
MA.Iterations=0
MA.Length=0
Loess.Length=0
Loess.Type=Linear
Loess.Robust=FALSE


Freq(Hz)	Mag(dB)	Phase(deg)	Unsmoothed(dB)

50.00000	93.99849	618.76408	93.99849
100.00000	79.36619	508.28687	79.36619
150.00000	65.68866	548.34114	65.68866
200.00000	70.20848	455.81863	70.20848
250.00000	82.45590	390.60587	82.45590
300.00000	80.58606	322.42775	80.58606
350.00000	82.15389	328.32604	82.15389
400.00000	85.26697	337.31089	85.26697
450.00000	85.68037	306.64979	85.68037
500.00000	87.23535	319.71068	87.23535
550.00000	89.80157	311.69161	89.80157
600.00000	92.96918	317.49734	92.96918
650.00000	93.30115	300.96835	93.30115
700.00000	95.21397	297.37393	95.21397
750.00000	96.20091	290.60382	96.20091
800.00000	99.73570	283.84031	99.73570
850.00000	100.87472	271.27339	100.87472
900.00000	102.36207	256.28891	102.36207
950.00000	103.36742	238.20749	103.36742
1000.00000	103.29386	220.60288	103.29386
1050.00000	102.58381	211.22748	102.58381
1100.00000	102.66625	198.80773	102.66625
1150.00000	101.63198	187.76860	101.63198
1200.00000	101.47276	186.31088	101.47276
1250.00000	101.14347	174.76394	101.14347
1300.00000	100.04478	169.82388	100.04478
1350.00000	99.10334	164.32130	99.10334
1400.00000	99.03785	166.38325	99.03785
1450.00000	98.51198	164.84734	98.51198
1500.00000	98.97800	167.46996	98.97800
1550.00000	98.47857	163.11038	98.47857
1600.00000	99.71529	160.49824	99.71529
1650.00000	99.87792	150.34604	99.87792
1700.00000	99.06252	147.50104	99.06252
1750.00000	98.45309	145.43212	98.45309
1800.00000	98.33804	144.66382	98.33804
1850.00000	97.74652	145.43288	97.74652
1900.00000	99.02048	148.30734	99.02048
1950.00000	99.52896	138.27661	99.52896
2000.00000	99.60081	130.65715	99.60081
2050.00000	98.15787	126.27775	98.15787
2100.00000	98.51815	125.95522	98.51815
2150.00000	97.91644	120.68406	97.91644
2200.00000	97.75569	116.98384	97.75569
2250.00000	96.29779	116.69820	96.29779
2300.00000	96.66778	117.41240	96.66778
2350.00000	96.00184	117.34067	96.00184
2400.00000	96.31173	116.31549	96.31173
2450.00000	95.59898	116.77625	95.59898
2500.00000	95.78914	116.38190	95.78914
2550.00000	94.68703	119.43230	94.68703
2600.00000	94.85491	125.92898	94.85491
2650.00000	95.59479	135.00741	95.59479
2700.00000	97.63902	134.55866	97.63902
2750.00000	98.88587	129.00997	98.88587
2800.00000	99.61792	119.50933	99.61792
2850.00000	99.49735	111.18032	99.49735
2900.00000	99.31991	104.72247	99.31991
2950.00000	98.81890	100.07165	98.81890
3000.00000	98.41020	96.79762	98.41020
3050.00000	97.93573	94.06409	97.93573
3100.00000	97.79866	91.62042	97.79866
3150.00000	97.36888	87.34583	97.36888
3200.00000	96.73603	85.23865	96.73603
3250.00000	95.99212	83.45577	95.99212
3300.00000	95.06631	82.43486	95.06631
3350.00000	93.97349	83.43447	93.97349
3400.00000	92.95118	90.99545	92.95118
3450.00000	92.67371	99.24449	92.67371
3500.00000	93.06288	106.24310	93.06288
3550.00000	93.65764	110.54865	93.65764
3600.00000	94.00709	112.75268	94.00709
3650.00000	93.89425	115.90594	93.89425
3700.00000	93.46647	123.31740	93.46647
3750.00000	94.34390	135.80243	94.34390
3800.00000	95.98332	145.13098	95.98332
3850.00000	97.88169	148.49783	97.88169
3900.00000	99.67248	148.81135	99.67248
3950.00000	101.40469	146.29669	101.40469
4000.00000	102.74722	142.80816	102.74722
4050.00000	103.82697	137.83773	103.82697
4100.00000	104.72953	133.68400	104.72953
4150.00000	105.69396	130.66240	105.69396
4200.00000	106.37189	127.34930	106.37189
4250.00000	107.21989	124.68599	107.21989
4300.00000	108.14220	122.11254	108.14220
4350.00000	109.00698	120.06238	109.00698
4400.00000	110.12365	117.88184	110.12365
4450.00000	111.37205	114.87693	111.37205
4500.00000	112.72450	110.68064	112.72450
4550.00000	114.10156	104.98428	114.10156
4600.00000	115.47605	97.99595	115.47605
4650.00000	116.86600	89.66053	116.86600
4700.00000	118.17667	79.27330	118.17667
4750.00000	119.31633	66.95732	119.31633
4800.00000	120.17724	52.80344	120.17724
4850.00000	120.59793	37.49988	120.59793
4900.00000	120.53905	21.99346	120.53905
4950.00000	120.00058	 7.47199	120.00058
5000.00000	118.99014	-4.61278	118.99014
5050.00000	117.93164	-12.96413	117.93164
5100.00000	116.74417	-22.43247	116.74417
5150.00000	114.26549	-25.34806	114.26549
5200.00000	113.01714	-7.39422	113.01714
5250.00000	116.06164	-0.45747	116.06164
5300.00000	117.88293	-13.40718	117.88293
5350.00000	118.24341	-26.94662	118.24341
5400.00000	118.01486	-38.06359	118.01486
5450.00000	117.59121	-46.96507	117.59121
5500.00000	117.12023	-54.54877	117.12023
5550.00000	116.64584	-61.02943	116.64584
5600.00000	116.17734	-66.97009	116.17734
5650.00000	115.73757	-72.40000	115.73757
5700.00000	115.29333	-77.59024	115.29333
5750.00000	114.88177	-82.20144	114.88177
5800.00000	114.46395	-86.73479	114.46395
5850.00000	114.07841	-91.07618	114.07841
5900.00000	113.70717	-95.16136	113.70717
5950.00000	113.35078	-99.09455	113.35078
6000.00000	112.99926	-102.79152	112.99926
6050.00000	112.63728	-106.52960	112.63728
6100.00000	112.30349	-110.11713	112.30349
6150.00000	111.97051	-113.58413	111.97051
6200.00000	111.62666	-116.90532	111.62666
6250.00000	111.31123	-120.20781	111.31123
6300.00000	111.00410	-123.43859	111.00410
6350.00000	110.68836	-126.72192	110.68836
6400.00000	110.38490	-129.82530	110.38490
6450.00000	110.09798	-132.99432	110.09798
6500.00000	109.78908	-136.08416	109.78908
6550.00000	109.46338	-138.91815	109.46338
6600.00000	109.15360	-141.68504	109.15360
6650.00000	108.85302	-144.32125	108.85302
6700.00000	108.54877	-147.01767	108.54877
6750.00000	108.26453	-149.42821	108.26453
6800.00000	107.98376	-151.68442	107.98376
6850.00000	107.71941	-153.79052	107.71941
6900.00000	107.45721	-155.86970	107.45721
6950.00000	107.21052	-157.73651	107.21052
7000.00000	107.01199	-159.75787	107.01199
7050.00000	106.80323	-161.89420	106.80323
7100.00000	106.62746	-163.92191	106.62746
7150.00000	106.44664	-165.77529	106.44664
7200.00000	106.26941	-167.81505	106.26941
7250.00000	106.08961	-169.67569	106.08961
7300.00000	105.98014	-171.38464	105.98014
7350.00000	105.84748	-173.03876	105.84748
7400.00000	105.78826	-174.75034	105.78826
7450.00000	105.74313	-176.67697	105.74313
7500.00000	105.71540	-178.47827	105.71540
7550.00000	105.73788	-180.57742	105.73788
7600.00000	105.72090	-182.85343	105.72090
7650.00000	105.74524	-185.22427	105.74524
7700.00000	105.82345	-187.81214	105.82345
7750.00000	105.82831	-190.78286	105.82831
7800.00000	105.84877	-194.07230	105.84877
7850.00000	105.85165	-197.44117	105.85165
7900.00000	105.81576	-201.03628	105.81576
7950.00000	105.73335	-204.95370	105.73335
8000.00000	105.61990	-208.81768	105.61990
8050.00000	105.47059	-212.83632	105.47059
8100.00000	105.30657	-216.19863	105.30657
8150.00000	105.04680	-219.76772	105.04680
8200.00000	104.81263	-222.96273	104.81263
8250.00000	104.53294	-226.50703	104.53294
8300.00000	104.26593	-229.66056	104.26593
8350.00000	103.96086	-232.58121	103.96086
8400.00000	103.63445	-235.83285	103.63445
8450.00000	103.24381	-238.52775	103.24381
8500.00000	102.87377	-241.20972	102.87377
8550.00000	102.56820	-243.41187	102.56820
8600.00000	102.21636	-245.84512	102.21636
8650.00000	101.87886	-247.80114	101.87886
8700.00000	101.58751	-250.30741	101.58751
8750.00000	101.23306	-251.40657	101.23306
8800.00000	100.94361	-253.63965	100.94361
8850.00000	100.62699	-255.42308	100.62699
8900.00000	100.38386	-256.91458	100.38386
8950.00000	100.16159	-258.80836	100.16159
9000.00000	99.88372	-260.29353	99.88372
9050.00000	99.73831	-262.18110	99.73831
9100.00000	99.57076	-263.71893	99.57076
9150.00000	99.42831	-265.29228	99.42831
9200.00000	99.34308	-266.94638	99.34308
9250.00000	99.19072	-268.28393	99.19072
9300.00000	99.08896	-269.76634	99.08896
9350.00000	99.01165	-271.28479	99.01165
9400.00000	98.83177	-272.24348	98.83177
9450.00000	98.78838	-273.64245	98.78838
9500.00000	98.71462	-274.98878	98.71462
9550.00000	98.61175	-276.66748	98.61175
9600.00000	98.59452	-278.66401	98.59452
9650.00000	98.54190	-280.86223	98.54190
9700.00000	98.49792	-282.35783	98.49792
9750.00000	98.53949	-284.98536	98.53949
9800.00000	98.45615	-286.50314	98.45615
9850.00000	98.40720	-287.92490	98.40720
9900.00000	98.21088	-289.80217	98.21088
9950.00000	98.07328	-291.16057	98.07328
10000.00000	97.93643	-293.22282	97.93643
10050.00000	97.74776	-295.33433	97.74776
10100.00000	97.54565	-297.31110	97.54565
10150.00000	97.31014	-300.34736	97.31014
10200.00000	97.17380	-302.68920	97.17380
10250.00000	97.01865	-305.37797	97.01865
10300.00000	97.03363	-307.77277	97.03363
10350.00000	96.90385	-309.91864	96.90385
10400.00000	96.77047	-312.11084	96.77047
10450.00000	96.77289	-314.23533	96.77289
10500.00000	96.71356	-316.28662	96.71356
10550.00000	96.60964	-318.44884	96.60964
10600.00000	96.45631	-320.41374	96.45631
10650.00000	96.30694	-322.25641	96.30694
10700.00000	96.17971	-325.37370	96.17971
10750.00000	96.11504	-327.92448	96.11504
10800.00000	95.96701	-330.22853	95.96701
10850.00000	95.88450	-333.59051	95.88450
10900.00000	95.76540	-335.74637	95.76540
10950.00000	95.64253	-337.77446	95.64253
11000.00000	95.46548	-340.01273	95.46548
11050.00000	95.13193	-342.13105	95.13193
11100.00000	94.87756	-344.88378	94.87756
11150.00000	94.52768	-346.95339	94.52768
11200.00000	94.32258	-349.19999	94.32258
11250.00000	94.00110	-351.93910	94.00110
11300.00000	93.70294	-354.27234	93.70294
11350.00000	93.43586	-355.86295	93.43586
11400.00000	93.08894	-357.55094	93.08894
11450.00000	92.86472	-359.64476	92.86472
11500.00000	92.71095	-360.38414	92.71095
11550.00000	92.34267	-361.48681	92.34267
11600.00000	92.18617	-363.63600	92.18617
11650.00000	91.91752	-364.01455	91.91752
11700.00000	91.77311	-365.19794	91.77311
11750.00000	91.67052	-366.68100	91.67052
11800.00000	91.53176	-368.43566	91.53176
11850.00000	91.47805	-369.08369	91.47805
11900.00000	91.20542	-370.83456	91.20542
11950.00000	91.11781	-371.92114	91.11781
12000.00000	90.89824	-373.06481	90.89824
12050.00000	90.67801	-374.46675	90.67801
12100.00000	90.55188	-377.32257	90.55188
12150.00000	90.34363	-379.48459	90.34363
12200.00000	90.27409	-381.99333	90.27409
12250.00000	90.11484	-383.90557	90.11484
12300.00000	91.06909	-386.11102	91.06909
12350.00000	89.74655	-388.11622	89.74655
12400.00000	89.47279	-389.03741	89.47279
12450.00000	89.16946	-390.58453	89.16946
12500.00000	88.80716	-392.31378	88.80716
12550.00000	88.44025	-393.92086	88.44025
12600.00000	88.03727	-396.08778	88.03727
12650.00000	87.86236	-397.43417	87.86236
12700.00000	87.41460	-398.77614	87.41460
12750.00000	87.06186	-400.12665	87.06186
12800.00000	86.72456	-400.57041	86.72456
12850.00000	86.09467	-401.09301	86.09467
12900.00000	85.80052	-401.61856	85.80052
12950.00000	85.43715	-402.45212	85.43715
13000.00000	85.15275	-403.90119	85.15275
13050.00000	85.05498	-402.40913	85.05498
13100.00000	84.77363	-402.71681	84.77363
13150.00000	84.58523	-403.63078	84.58523
13200.00000	84.33715	-402.23902	84.33715
13250.00000	84.06601	-401.50296	84.06601
13300.00000	83.75268	-399.77646	83.75268
13350.00000	83.30220	-400.66457	83.30220
13400.00000	83.34404	-401.12336	83.34404
13450.00000	82.90836	-399.61246	82.90836
13500.00000	82.93507	-398.46515	82.93507
13550.00000	82.58103	-398.84987	82.58103
13600.00000	82.51073	-396.95844	82.51073
13650.00000	82.38709	-396.19812	82.38709
13700.00000	81.98897	-394.57511	81.98897
13750.00000	81.91113	-394.22295	81.91113
13800.00000	81.79479	-394.21300	81.79479
13850.00000	81.43538	-395.19331	81.43538
13900.00000	81.43322	-393.86246	81.43322
13950.00000	81.61057	-393.67338	81.61057
14000.00000	81.73141	-391.12333	81.73141
14050.00000	81.69159	-390.16926	81.69159
14100.00000	81.63597	-387.53937	81.63597
14150.00000	81.70849	-386.49580	81.70849
14200.00000	81.88955	-385.19337	81.88955
14250.00000	82.18098	-381.74075	82.18098
14300.00000	82.25409	-381.99638	82.25409
14350.00000	82.19374	-379.46730	82.19374
14400.00000	82.04222	-378.99642	82.04222
14450.00000	82.18996	-376.97912	82.18996
14500.00000	82.12744	-377.77506	82.12744
14550.00000	82.76518	-376.55018	82.76518
14600.00000	82.77819	-376.63640	82.77819
14650.00000	83.39395	-373.33653	83.39395
14700.00000	83.74435	-377.04583	83.74435
14750.00000	84.03181	-375.23421	84.03181
14800.00000	84.35979	-373.18280	84.35979
14850.00000	84.65780	-373.34111	84.65780
14900.00000	84.83059	-374.13195	84.83059
14950.00000	85.36385	-375.15827	85.36385
15000.00000	85.68173	-375.21519	85.68173
15050.00000	85.89593	-373.81764	85.89593
15100.00000	86.16955	-374.80439	86.16955
15150.00000	86.65794	-376.18122	86.65794
15200.00000	87.01972	-375.71846	87.01972
15250.00000	87.11661	-376.36226	87.11661
15300.00000	87.64905	-377.86043	87.64905
15350.00000	87.87077	-378.17128	87.87077
15400.00000	88.10401	-377.52563	88.10401
15450.00000	88.40177	-378.87866	88.40177
15500.00000	88.86236	-379.67590	88.86236
15550.00000	89.21198	-381.64477	89.21198
15600.00000	89.56449	-383.82545	89.56449
15650.00000	90.14789	-382.59662	90.14789
15700.00000	90.35210	-384.59841	90.35210
15750.00000	90.85377	-385.98644	90.85377
15800.00000	91.23656	-385.94816	91.23656
15850.00000	91.46935	-387.95666	91.46935
15900.00000	91.83204	-390.65392	91.83204
15950.00000	92.19213	-392.23586	92.19213
16000.00000	92.58358	-393.37777	92.58358
16050.00000	93.07144	-395.61169	93.07144
16100.00000	93.29083	-398.16087	93.29083
16150.00000	93.50450	-400.11481	93.50450
16200.00000	93.89829	-403.11164	93.89829
16250.00000	94.29477	-404.93365	94.29477
16300.00000	94.75665	-407.17478	94.75665
16350.00000	95.10171	-409.69595	95.10171
16400.00000	95.33573	-411.93580	95.33573
16450.00000	95.60044	-414.19753	95.60044
16500.00000	95.84435	-417.77179	95.84435
16550.00000	96.12907	-420.81361	96.12907
16600.00000	96.40835	-423.55769	96.40835
16650.00000	96.63675	-426.17917	96.63675
16700.00000	96.86038	-428.41167	96.86038
16750.00000	96.95086	-431.42334	96.95086
16800.00000	97.17846	-434.40628	97.17846
16850.00000	97.43537	-437.38017	97.43537
16900.00000	97.67693	-440.38397	97.67693
16950.00000	97.75817	-442.82431	97.75817
17000.00000	97.84365	-445.02919	97.84365
17050.00000	98.02197	-447.31217	98.02197
17100.00000	98.10464	-449.02265	98.10464
17150.00000	98.40962	-452.44091	98.40962
17200.00000	98.55104	-454.50198	98.55104
17250.00000	98.67927	-457.51610	98.67927
17300.00000	98.94398	-459.76344	98.94398
17350.00000	98.92942	-461.71500	98.92942
17400.00000	99.21924	-464.78447	99.21924
17450.00000	99.31556	-467.51196	99.31556
17500.00000	99.49770	-470.34294	99.49770
17550.00000	99.75716	-472.52374	99.75716
17600.00000	99.99484	-474.66484	99.99484
17650.00000	100.10864	-478.37387	100.10864
17700.00000	100.28547	-481.06965	100.28547
17750.00000	100.52208	-483.35663	100.52208
17800.00000	100.61105	-486.87529	100.61105
17850.00000	100.79863	-489.09920	100.79863
17900.00000	100.90179	-492.15995	100.90179
17950.00000	101.16181	-495.34037	101.16181
18000.00000	101.21156	-498.77566	101.21156
18050.00000	101.49370	-501.60033	101.49370
18100.00000	101.57507	-504.77070	101.57507
18150.00000	101.68188	-507.15194	101.68188
18200.00000	101.72608	-511.22489	101.72608
18250.00000	101.88826	-513.39998	101.88826
18300.00000	102.05050	-516.87135	102.05050
18350.00000	102.17716	-519.67182	102.17716
18400.00000	102.20315	-522.90947	102.20315
18450.00000	102.25174	-527.45155	102.25174
18500.00000	102.34930	-530.15965	102.34930
18550.00000	102.39605	-533.12256	102.39605
18600.00000	102.59940	-536.70225	102.59940
18650.00000	102.53642	-539.59971	102.53642
18700.00000	102.56846	-543.27463	102.56846
18750.00000	102.70025	-546.40094	102.70025
18800.00000	102.81531	-548.91006	102.81531
18850.00000	102.74787	-552.65673	102.74787
18900.00000	102.79316	-555.55465	102.79316
18950.00000	102.82941	-559.43548	102.82941
19000.00000	102.75279	-562.24412	102.75279
19050.00000	102.86630	-565.82795	102.86630
19100.00000	102.82961	-569.10222	102.82961
19150.00000	102.99440	-572.21338	102.99440
19200.00000	102.94926	-575.13464	102.94926
19250.00000	102.91192	-579.28966	102.91192
19300.00000	102.82454	-581.97944	102.82454
19350.00000	102.83569	-585.47306	102.83569
19400.00000	102.78090	-588.60890	102.78090
19450.00000	102.82732	-591.23894	102.82732
19500.00000	102.69038	-595.25947	102.69038
19550.00000	102.64191	-598.36306	102.64191
19600.00000	102.67581	-602.08661	102.67581
19650.00000	102.56207	-604.75200	102.56207
19700.00000	102.38276	-608.02686	102.38276
19750.00000	102.30810	-610.61769	102.30810
19800.00000	102.30287	-614.56846	102.30287
19850.00000	102.22129	-617.48356	102.22129
19900.00000	102.08899	-621.36279	102.08899
19950.00000	101.93785	-624.15854	101.93785
20000.00000	101.84087	-627.25237	101.84087
20050.00000	101.68802	-630.11857	101.68802
20100.00000	101.48110	-633.25245	101.48110
20150.00000	101.41126	-635.25680	101.41126
20200.00000	101.20133	-638.91757	101.20133
20250.00000	100.99216	-641.39380	100.99216
20300.00000	100.74142	-644.09850	100.74142
20350.00000	100.63813	-647.03648	100.63813
20400.00000	100.36704	-648.56459	100.36704
20450.00000	100.11170	-651.01982	100.11170
20500.00000	99.96707	-653.37410	99.96707
20550.00000	99.50707	-654.64379	99.50707
20600.00000	99.39721	-656.51071	99.39721
20650.00000	99.20219	-657.95881	99.20219
20700.00000	98.96857	-659.29007	98.96857
20750.00000	98.81697	-660.19192	98.81697
20800.00000	98.60515	-661.10254	98.60515
20850.00000	98.54390	-662.15417	98.54390
20900.00000	98.36284	-662.79050	98.36284
20950.00000	98.25915	-662.76959	98.25915
21000.00000	98.18727	-663.14938	98.18727
21050.00000	98.31535	-663.12804	98.31535
21100.00000	98.34004	-663.41077	98.34004
21150.00000	98.51190	-664.06840	98.51190
21200.00000	98.68326	-664.10580	98.68326
21250.00000	98.83764	-666.09938	98.83764
21300.00000	99.09623	-666.91658	99.09623
21350.00000	99.27823	-668.16199	99.27823
21400.00000	99.47702	-670.21721	99.47702
21450.00000	99.70704	-672.05106	99.70704
21500.00000	99.89861	-674.72266	99.89861
21550.00000	99.94817	-676.82620	99.94817
21600.00000	100.19490	-679.42644	100.19490
21650.00000	100.29519	-682.14494	100.29519
21700.00000	100.37473	-684.30380	100.37473
21750.00000	100.47758	-687.08235	100.47758
21800.00000	100.55951	-689.85858	100.55951
21850.00000	100.55789	-692.51697	100.55789
21900.00000	100.63149	-694.80829	100.63149
21950.00000	100.60430	-697.14082	100.60430
22000.00000	100.70057	-699.55937	100.70057
22050.00000	100.68620	-701.92788	100.68620
22100.00000	100.68178	-704.11921	100.68178
22150.00000	100.65676	-706.54749	100.65676
22200.00000	100.72276	-708.78988	100.72276
22250.00000	100.65137	-710.84554	100.65137
22300.00000	100.57905	-712.88569	100.57905
22350.00000	100.58331	-715.40504	100.58331
22400.00000	100.67758	-717.74570	100.67758
22450.00000	100.52621	-719.59438	100.52621
22500.00000	100.55048	-720.79896	100.55048
22550.00000	100.51260	-722.21225	100.51260
22600.00000	100.52392	-725.44772	100.52392
22650.00000	100.46904	-727.32645	100.46904
22700.00000	100.48224	-728.76100	100.48224
22750.00000	100.45580	-728.89139	100.45580
22800.00000	100.50704	-732.79164	100.50704
22850.00000	100.55171	-734.55658	100.55171
22900.00000	100.58401	-735.74651	100.58401
22950.00000	100.60531	-737.06627	100.60531
23000.00000	100.61947	-738.15710	100.61947
23050.00000	100.59469	-741.04842	100.59469
