---ACOUSTIC CALIBRATION---
Filename: C:\Data\AZH DATA\AZH61\RightPrimary.calib
Date: 8/27/2019 3:33:16 PM
Format: 4
Probe Tube Correction File: C:\Data\Probe Tube Calibrations\50_ProbeTube.calib
Experiment VIs: 850
EPL_CFTS.exe V12.0.1 (2012)
DAQmx V9.6

Attenuation (dB): 40.000000
Min Freq (Hz): 50.000000
Max Freq (Hz): 49950.000000
Freq Step (Hz): 50.000000
Sample Rate (Hz): 100000.000000
[Smoothing]
Method=None
MA.Iterations=0
MA.Length=0
Loess.Length=0
Loess.Type=Linear
Loess.Robust=FALSE


Freq(Hz)	Mag(dB)	Phase(deg)	Unsmoothed(dB)

50.00000	89.97018	423.25009	89.97018
100.00000	81.50387	580.82714	81.50387
150.00000	83.34749	510.12966	83.34749
200.00000	82.90396	474.22291	82.90396
250.00000	89.24208	463.94158	89.24208
300.00000	85.04172	389.98810	85.04172
350.00000	84.78580	377.93006	84.78580
400.00000	85.60331	362.03831	85.60331
450.00000	86.94735	349.87920	86.94735
500.00000	89.54588	365.07141	89.54588
550.00000	92.51736	359.74041	92.51736
600.00000	95.24242	351.81658	95.24242
650.00000	98.09962	342.85327	98.09962
700.00000	100.50556	326.64393	100.50556
750.00000	102.44572	311.20182	102.44572
800.00000	103.27872	287.34403	103.27872
850.00000	102.85138	271.78864	102.85138
900.00000	101.30094	255.09053	101.30094
950.00000	99.55369	253.45264	99.55369
1000.00000	98.07943	254.30933	98.07943
1050.00000	96.14503	269.25596	96.14503
1100.00000	97.89189	290.29436	97.89189
1150.00000	100.70273	295.50937	100.70273
1200.00000	103.40672	293.92443	103.40672
1250.00000	105.10943	286.77320	105.10943
1300.00000	106.78952	281.66615	106.78952
1350.00000	108.08159	272.20553	108.08159
1400.00000	109.03034	265.79104	109.03034
1450.00000	110.06766	258.86115	110.06766
1500.00000	111.19897	252.33674	111.19897
1550.00000	112.06121	243.06373	112.06121
1600.00000	113.44759	233.33520	113.44759
1650.00000	114.46589	216.65124	114.46589
1700.00000	113.22739	206.82707	113.22739
1750.00000	113.04615	201.22930	113.04615
1800.00000	112.80931	196.55284	112.80931
1850.00000	112.98861	195.44674	112.98861
1900.00000	114.16699	191.19688	114.16699
1950.00000	114.83099	177.75373	114.83099
2000.00000	113.86484	165.72022	113.86484
2050.00000	112.56897	169.78760	112.56897
2100.00000	114.34253	169.74678	114.34253
2150.00000	115.01311	158.64344	115.01311
2200.00000	114.91754	148.47978	114.91754
2250.00000	114.31914	141.55409	114.31914
2300.00000	114.40494	135.94951	114.40494
2350.00000	114.13005	129.53958	114.13005
2400.00000	113.87058	124.09016	113.87058
2450.00000	113.55306	117.47413	113.55306
2500.00000	113.16330	112.56709	113.16330
2550.00000	112.71069	107.13118	112.71069
2600.00000	112.16441	102.95912	112.16441
2650.00000	111.67238	99.15465	111.67238
2700.00000	111.13430	95.59872	111.13430
2750.00000	110.55054	92.43493	110.55054
2800.00000	109.94216	89.91606	109.94216
2850.00000	109.35054	88.13392	109.35054
2900.00000	108.71900	86.11264	108.71900
2950.00000	108.02753	85.29215	108.02753
3000.00000	107.27708	84.48862	107.27708
3050.00000	106.33899	84.58070	106.33899
3100.00000	105.44130	87.33456	105.44130
3150.00000	104.30660	90.57729	104.30660
3200.00000	103.34090	100.03795	103.34090
3250.00000	103.07404	111.85945	103.07404
3300.00000	103.45910	124.28830	103.45910
3350.00000	104.52606	137.01955	104.52606
3400.00000	106.50782	147.69550	106.50782
3450.00000	108.84916	151.74974	108.84916
3500.00000	111.19884	151.03709	111.19884
3550.00000	113.00870	146.64963	113.00870
3600.00000	114.65391	142.08757	114.65391
3650.00000	116.02013	136.16163	116.02013
3700.00000	117.26198	130.40326	117.26198
3750.00000	118.46288	123.80811	118.46288
3800.00000	119.48646	116.29616	119.48646
3850.00000	120.32133	108.85734	120.32133
3900.00000	121.08730	101.95655	121.08730
3950.00000	121.86834	94.81518	121.86834
4000.00000	122.57590	87.44090	122.57590
4050.00000	123.27486	80.11513	123.27486
4100.00000	123.98697	72.55123	123.98697
4150.00000	124.87748	64.08538	124.87748
4200.00000	125.45245	54.06375	125.45245
4250.00000	125.96295	43.21115	125.96295
4300.00000	126.24300	31.74851	126.24300
4350.00000	126.24837	20.20736	126.24837
4400.00000	126.04457	 9.58187	126.04457
4450.00000	125.72221	-0.21552	125.72221
4500.00000	125.33403	-9.16678	125.33403
4550.00000	124.91874	-17.59920	124.91874
4600.00000	124.45820	-25.48107	124.45820
4650.00000	124.04957	-33.01800	124.04957
4700.00000	123.59474	-40.96982	123.59474
4750.00000	123.02412	-49.19769	123.02412
4800.00000	122.27335	-57.57966	122.27335
4850.00000	121.24708	-65.17881	121.24708
4900.00000	120.00532	-71.03439	120.00532
4950.00000	118.68999	-74.45742	118.68999
5000.00000	117.44823	-75.35822	117.44823
5050.00000	116.39871	-75.41555	116.39871
5100.00000	115.23645	-72.27746	115.23645
5150.00000	115.10361	-66.50960	115.10361
5200.00000	114.57559	-62.50368	114.57559
5250.00000	115.95465	-52.71268	115.95465
5300.00000	117.85316	-61.55730	117.85316
5350.00000	117.81925	-72.82798	117.81925
5400.00000	117.26064	-79.15064	117.26064
5450.00000	116.76880	-82.81544	116.76880
5500.00000	116.39097	-85.60561	116.39097
5550.00000	116.10149	-87.97373	116.10149
5600.00000	115.86797	-90.18737	115.86797
5650.00000	115.69084	-92.35587	115.69084
5700.00000	115.51614	-94.71019	115.51614
5750.00000	115.38512	-96.92033	115.38512
5800.00000	115.24527	-99.25030	115.24527
5850.00000	115.11856	-101.55420	115.11856
5900.00000	115.00939	-103.67926	115.00939
5950.00000	114.92602	-105.80158	114.92602
6000.00000	114.87625	-107.81523	114.87625
6050.00000	114.83858	-110.06286	114.83858
6100.00000	114.83882	-112.41960	114.83882
6150.00000	114.83224	-115.04553	114.83224
6200.00000	114.79979	-117.74652	114.79979
6250.00000	114.77658	-120.56527	114.77658
6300.00000	114.73963	-123.40841	114.73963
6350.00000	114.67529	-126.32759	114.67529
6400.00000	114.61008	-129.08194	114.61008
6450.00000	114.57028	-131.92167	114.57028
6500.00000	114.49454	-134.71183	114.49454
6550.00000	114.42159	-137.42493	114.42159
6600.00000	114.37006	-140.11114	114.37006
6650.00000	114.32682	-142.80609	114.32682
6700.00000	114.29303	-145.62571	114.29303
6750.00000	114.26566	-148.39592	114.26566
6800.00000	114.25209	-151.11696	114.25209
6850.00000	114.23279	-153.93931	114.23279
6900.00000	114.22453	-156.77628	114.22453
6950.00000	114.21651	-159.52283	114.21651
7000.00000	114.23459	-162.52203	114.23459
7050.00000	114.22659	-165.67201	114.22659
7100.00000	114.24413	-168.92122	114.24413
7150.00000	114.25467	-172.14711	114.25467
7200.00000	114.24705	-175.53692	114.24705
7250.00000	114.22003	-179.10596	114.22003
7300.00000	114.22903	-182.75824	114.22903
7350.00000	114.18740	-186.43996	114.18740
7400.00000	114.16212	-190.33569	114.16212
7450.00000	114.11147	-194.37434	114.11147
7500.00000	114.05335	-198.43263	114.05335
7550.00000	113.96460	-202.50837	113.96460
7600.00000	113.83341	-206.65211	113.83341
7650.00000	113.68954	-210.82394	113.68954
7700.00000	113.55758	-214.95774	113.55758
7750.00000	113.34098	-219.13302	113.34098
7800.00000	113.14211	-223.26950	113.14211
7850.00000	112.90798	-227.29157	112.90798
7900.00000	112.65742	-231.21489	112.65742
7950.00000	112.36334	-235.12967	112.36334
8000.00000	112.07819	-238.91908	112.07819
8050.00000	111.77869	-242.82284	111.77869
8100.00000	111.46256	-245.85312	111.46256
8150.00000	111.06362	-249.15219	111.06362
8200.00000	110.69855	-251.88717	110.69855
8250.00000	110.29769	-255.06957	110.29769
8300.00000	109.93005	-257.90310	109.93005
8350.00000	109.52810	-260.53728	109.52810
8400.00000	109.11176	-263.63589	109.11176
8450.00000	108.63999	-266.28081	108.63999
8500.00000	108.23052	-269.05084	108.23052
8550.00000	107.88237	-271.44641	107.88237
8600.00000	107.54214	-274.15474	107.54214
8650.00000	107.20431	-276.35486	107.20431
8700.00000	106.95010	-278.93422	106.95010
8750.00000	106.61152	-279.82090	106.61152
8800.00000	106.32619	-281.71399	106.32619
8850.00000	106.00520	-283.06806	106.00520
8900.00000	105.71695	-283.91710	105.71695
8950.00000	105.39430	-285.23274	105.39430
9000.00000	104.97653	-286.44950	104.97653
9050.00000	104.60995	-288.25530	104.60995
9100.00000	104.21169	-290.00853	104.21169
9150.00000	103.88055	-291.99710	103.88055
9200.00000	103.63029	-294.20541	103.63029
9250.00000	103.36664	-296.43672	103.36664
9300.00000	103.22531	-298.64887	103.22531
9350.00000	103.14869	-300.50316	103.14869
9400.00000	102.98576	-301.41112	102.98576
9450.00000	102.96054	-302.00757	102.96054
9500.00000	102.89267	-301.45703	102.89267
9550.00000	102.88126	-301.33473	102.88126
9600.00000	102.84215	-302.18188	102.84215
9650.00000	102.60158	-303.25426	102.60158
9700.00000	102.39667	-303.92526	102.39667
9750.00000	102.27382	-306.22120	102.27382
9800.00000	101.94733	-307.44270	101.94733
9850.00000	101.82403	-309.51509	101.82403
9900.00000	101.62174	-311.87895	101.62174
9950.00000	101.60214	-313.43292	101.60214
10000.00000	101.58267	-315.22935	101.58267
10050.00000	101.54627	-316.46636	101.54627
10100.00000	101.47848	-317.52148	101.47848
10150.00000	101.28789	-319.07638	101.28789
10200.00000	101.14605	-320.13215	101.14605
10250.00000	100.90315	-321.83611	100.90315
10300.00000	100.80024	-323.77868	100.80024
10350.00000	100.56556	-325.92166	100.56556
10400.00000	100.36369	-328.57120	100.36369
10450.00000	100.35852	-331.33546	100.35852
10500.00000	100.38179	-333.73688	100.38179
10550.00000	100.37345	-336.04032	100.37345
10600.00000	100.35739	-337.83431	100.35739
10650.00000	100.29670	-339.04167	100.29670
10700.00000	100.21311	-341.34806	100.21311
10750.00000	100.12468	-343.17901	100.12468
10800.00000	99.92837	-344.87524	99.92837
10850.00000	99.74389	-347.89551	99.74389
10900.00000	99.59015	-350.02717	99.59015
10950.00000	99.43275	-352.22946	99.43275
11000.00000	99.32192	-354.64079	99.32192
11050.00000	99.03869	-356.65591	99.03869
11100.00000	98.88511	-359.20279	98.88511
11150.00000	98.59857	-360.81872	98.59857
11200.00000	98.42472	-362.46128	98.42472
11250.00000	98.12806	-364.68137	98.12806
11300.00000	97.77648	-366.63363	97.77648
11350.00000	97.50720	-368.11415	97.50720
11400.00000	97.16948	-369.97778	97.16948
11450.00000	96.97242	-372.19816	96.97242
11500.00000	96.88730	-373.10878	96.88730
11550.00000	96.57070	-374.29226	96.57070
11600.00000	96.45691	-376.30531	96.45691
11650.00000	96.21756	-376.46111	96.21756
11700.00000	96.08299	-377.34120	96.08299
11750.00000	95.93984	-378.57420	95.93984
11800.00000	95.79545	-380.24616	95.79545
11850.00000	95.74541	-380.55912	95.74541
11900.00000	95.47849	-382.12470	95.47849
11950.00000	95.39099	-382.80941	95.39099
12000.00000	95.20571	-383.76922	95.20571
12050.00000	94.99179	-384.90440	94.99179
12100.00000	94.89819	-387.28735	94.89819
12150.00000	94.74195	-389.14649	94.74195
12200.00000	94.71331	-391.26226	94.71331
12250.00000	94.66860	-392.47344	94.66860
12300.00000	95.70609	-394.26438	95.70609
12350.00000	94.45990	-395.53601	94.45990
12400.00000	94.25771	-396.31685	94.25771
12450.00000	94.03517	-397.73052	94.03517
12500.00000	93.78922	-399.83647	93.78922
12550.00000	93.58303	-402.08284	93.58303
12600.00000	93.35928	-404.86649	93.35928
12650.00000	93.35620	-406.73296	93.35620
12700.00000	93.05900	-408.36239	93.05900
12750.00000	92.78629	-410.25003	92.78629
12800.00000	92.48858	-411.29805	92.48858
12850.00000	91.89274	-412.42628	91.89274
12900.00000	91.62833	-414.01958	91.62833
12950.00000	91.34853	-416.05262	91.34853
13000.00000	91.02027	-417.70679	91.02027
13050.00000	90.82988	-417.43742	90.82988
13100.00000	90.43483	-418.24339	90.43483
13150.00000	90.08127	-420.02389	90.08127
13200.00000	89.73541	-419.24782	89.73541
13250.00000	89.46530	-419.34054	89.46530
13300.00000	89.00410	-417.55185	89.00410
13350.00000	88.70386	-418.57683	88.70386
13400.00000	88.59044	-418.68300	88.59044
13450.00000	88.13292	-416.32785	88.13292
13500.00000	88.05020	-415.20437	88.05020
13550.00000	87.73916	-415.41227	87.73916
13600.00000	87.58509	-412.98188	87.58509
13650.00000	87.31587	-411.87387	87.31587
13700.00000	86.91562	-411.91870	86.91562
13750.00000	86.71502	-411.58193	86.71502
13800.00000	86.60549	-411.88137	86.60549
13850.00000	86.52314	-413.05258	86.52314
13900.00000	86.38669	-410.74982	86.38669
13950.00000	86.53277	-408.87006	86.53277
14000.00000	86.63414	-405.90669	86.63414
14050.00000	86.30185	-405.37739	86.30185
14100.00000	86.10477	-404.57341	86.10477
14150.00000	86.21807	-403.03653	86.21807
14200.00000	86.46843	-402.52706	86.46843
14250.00000	86.98728	-399.76224	86.98728
14300.00000	87.08464	-397.87947	87.08464
14350.00000	87.08765	-394.36648	87.08765
14400.00000	86.73736	-393.83651	86.73736
14450.00000	87.00226	-391.93935	87.00226
14500.00000	86.99111	-391.64601	86.99111
14550.00000	87.17061	-390.66667	87.17061
14600.00000	87.48469	-391.63571	87.48469
14650.00000	88.10045	-389.18183	88.10045
14700.00000	88.32893	-391.31670	88.32893
14750.00000	88.46897	-389.69398	88.46897
14800.00000	88.74319	-388.39168	88.74319
14850.00000	89.05974	-387.17728	89.05974
14900.00000	89.40292	-387.98370	89.40292
14950.00000	89.75210	-389.20238	89.75210
15000.00000	90.36262	-388.59708	90.36262
15050.00000	90.59833	-386.91636	90.59833
15100.00000	90.86995	-385.68455	90.86995
15150.00000	91.33650	-385.94508	91.33650
15200.00000	91.38057	-385.36564	91.38057
15250.00000	91.56056	-388.26579	91.56056
15300.00000	92.32654	-389.67218	92.32654
15350.00000	92.78877	-389.91873	92.78877
15400.00000	93.12668	-388.82425	93.12668
15450.00000	93.38726	-389.32826	93.38726
15500.00000	93.81696	-389.52124	93.81696
15550.00000	94.17382	-391.54365	94.17382
15600.00000	94.57304	-394.22328	94.57304
15650.00000	95.23150	-393.50343	95.23150
15700.00000	95.45626	-395.49624	95.45626
15750.00000	96.09531	-396.76287	96.09531
15800.00000	96.56019	-396.86094	96.56019
15850.00000	96.82613	-398.28780	96.82613
15900.00000	97.12714	-400.87511	97.12714
15950.00000	97.67786	-403.19757	97.67786
16000.00000	98.12825	-405.37580	98.12825
16050.00000	98.59835	-407.60789	98.59835
16100.00000	98.92983	-410.14448	98.92983
16150.00000	99.19931	-411.97943	99.19931
16200.00000	99.55278	-415.84437	99.55278
16250.00000	99.93472	-418.15588	99.93472
16300.00000	100.44064	-421.17585	100.44064
16350.00000	100.78222	-424.23772	100.78222
16400.00000	101.09447	-426.79643	101.09447
16450.00000	101.30473	-429.29755	101.30473
16500.00000	101.55145	-432.88419	101.55145
16550.00000	101.85973	-436.64679	101.85973
16600.00000	102.06751	-439.49611	102.06751
16650.00000	102.27290	-442.84168	102.27290
16700.00000	102.53709	-445.19069	102.53709
16750.00000	102.61753	-448.73268	102.61753
16800.00000	102.81523	-452.13205	102.81523
16850.00000	103.04359	-455.08469	103.04359
16900.00000	103.22096	-458.30120	103.22096
16950.00000	103.42301	-461.28612	103.42301
17000.00000	103.43689	-464.17189	103.43689
17050.00000	103.62488	-466.28138	103.62488
17100.00000	103.64297	-468.40127	103.64297
17150.00000	103.93314	-471.97774	103.93314
17200.00000	104.06161	-474.81001	104.06161
17250.00000	104.18009	-478.30261	104.18009
17300.00000	104.39110	-480.80081	104.39110
17350.00000	104.37180	-483.36620	104.37180
17400.00000	104.62230	-486.34711	104.62230
17450.00000	104.67578	-489.45394	104.67578
17500.00000	104.83139	-492.48953	104.83139
17550.00000	104.99906	-495.30567	104.99906
17600.00000	105.20010	-497.76348	105.20010
17650.00000	105.29410	-501.77604	105.29410
17700.00000	105.38417	-504.84630	105.38417
17750.00000	105.61462	-507.34436	105.61462
17800.00000	105.62535	-511.16209	105.62535
17850.00000	105.75091	-513.71143	105.75091
17900.00000	105.81038	-517.12234	105.81038
17950.00000	105.97321	-520.53065	105.97321
18000.00000	106.02167	-524.20651	106.02167
18050.00000	106.20060	-527.11786	106.20060
18100.00000	106.21894	-530.95023	106.21894
18150.00000	106.23928	-533.72879	106.23928
18200.00000	106.21708	-537.66247	106.21708
18250.00000	106.32370	-539.89176	106.32370
18300.00000	106.38458	-543.23212	106.38458
18350.00000	106.42116	-546.40111	106.42116
18400.00000	106.37195	-549.87964	106.37195
18450.00000	106.35457	-554.25675	106.35457
18500.00000	106.34703	-557.17753	106.34703
18550.00000	106.31320	-559.93641	106.31320
18600.00000	106.41144	-563.61120	106.41144
18650.00000	106.25335	-566.32455	106.25335
18700.00000	106.20604	-570.13736	106.20604
18750.00000	106.23152	-572.91561	106.23152
18800.00000	106.25214	-575.27910	106.25214
18850.00000	106.10048	-578.73174	106.10048
18900.00000	106.04123	-581.29029	106.04123
18950.00000	105.98980	-584.79457	105.98980
19000.00000	105.79779	-587.20876	105.79779
19050.00000	105.88383	-589.91815	105.88383
19100.00000	105.78570	-592.67836	105.78570
19150.00000	105.87348	-595.09748	105.87348
19200.00000	105.76496	-597.61384	105.76496
19250.00000	105.70386	-601.22418	105.70386
19300.00000	105.59271	-603.09192	105.59271
19350.00000	105.56939	-606.03471	105.56939
19400.00000	105.50500	-608.21793	105.50500
19450.00000	105.54421	-610.39474	105.54421
19500.00000	105.42914	-613.84220	105.42914
19550.00000	105.40303	-616.20690	105.40303
19600.00000	105.43914	-619.47438	105.43914
19650.00000	105.35040	-621.56778	105.35040
19700.00000	105.19952	-624.27151	105.19952
19750.00000	105.15028	-626.42692	105.15028
19800.00000	105.17936	-629.89210	105.17936
19850.00000	105.15126	-632.32765	105.15126
19900.00000	105.05943	-635.51950	105.05943
19950.00000	104.97394	-637.95550	104.97394
20000.00000	104.92321	-640.75885	104.92321
20050.00000	104.84915	-643.29955	104.84915
20100.00000	104.68694	-646.13662	104.68694
20150.00000	104.66281	-647.73171	104.66281
20200.00000	104.53497	-651.25380	104.53497
20250.00000	104.39858	-653.62696	104.39858
20300.00000	104.20056	-656.07066	104.20056
20350.00000	104.16885	-658.79137	104.16885
20400.00000	103.95616	-660.30076	103.95616
20450.00000	103.75459	-662.65499	103.75459
20500.00000	103.67916	-665.00727	103.67916
20550.00000	103.29911	-666.36963	103.29911
20600.00000	103.26047	-668.04979	103.26047
20650.00000	103.09241	-669.75573	103.09241
20700.00000	102.90969	-671.21879	102.90969
20750.00000	102.82750	-672.35944	102.82750
20800.00000	102.65612	-673.32005	102.65612
20850.00000	102.61785	-674.33646	102.61785
20900.00000	102.47336	-675.28293	102.47336
20950.00000	102.42247	-675.47066	102.42247
21000.00000	102.38364	-676.02477	102.38364
21050.00000	102.55247	-676.26726	102.55247
21100.00000	102.60131	-676.57111	102.60131
21150.00000	102.78477	-677.58364	102.78477
21200.00000	102.98694	-678.00629	102.98694
21250.00000	103.16195	-680.38565	103.16195
21300.00000	103.43008	-681.16316	103.43008
21350.00000	103.61389	-682.81073	103.61389
21400.00000	103.82091	-685.09521	103.82091
21450.00000	104.03845	-687.39825	104.03845
21500.00000	104.24187	-690.29516	104.24187
21550.00000	104.30911	-692.58887	104.30911
21600.00000	104.52133	-695.66051	104.52133
21650.00000	104.58150	-698.61096	104.58150
21700.00000	104.64356	-701.37565	104.64356
21750.00000	104.71146	-704.27123	104.71146
21800.00000	104.72566	-707.29658	104.72566
21850.00000	104.70504	-709.89528	104.70504
21900.00000	104.69562	-712.66634	104.69562
21950.00000	104.67880	-715.16753	104.67880
22000.00000	104.68375	-717.63458	104.68375
22050.00000	104.65803	-719.88876	104.65803
22100.00000	104.58059	-722.32990	104.58059
22150.00000	104.53489	-724.60660	104.53489
22200.00000	104.58173	-726.94229	104.58173
22250.00000	104.48716	-728.82513	104.48716
22300.00000	104.38204	-730.94594	104.38204
22350.00000	104.44091	-733.35909	104.44091
22400.00000	104.47877	-735.53048	104.47877
22450.00000	104.35248	-737.49308	104.35248
22500.00000	104.30541	-738.51211	104.30541
22550.00000	104.26484	-740.96937	104.26484
22600.00000	104.26467	-743.88331	104.26467
22650.00000	104.23451	-745.64740	104.23451
22700.00000	104.19441	-747.63272	104.19441
22750.00000	104.18667	-747.42484	104.18667
