---ACOUSTIC CALIBRATION---
Filename: C:\Data\AZH DATA\AZH61\RightSecondary.calib
Date: 8/27/2019 3:31:56 PM
Format: 4
Probe Tube Correction File: C:\Data\Probe Tube Calibrations\50_ProbeTube.calib
Experiment VIs: 850
EPL_CFTS.exe V12.0.1 (2012)
DAQmx V9.6

Attenuation (dB): 40.000000
Min Freq (Hz): 50.000000
Max Freq (Hz): 49950.000000
Freq Step (Hz): 50.000000
Sample Rate (Hz): 100000.000000
[Smoothing]
Method=None
MA.Iterations=0
MA.Length=0
Loess.Length=0
Loess.Type=Linear
Loess.Robust=FALSE


Freq(Hz)	Mag(dB)	Phase(deg)	Unsmoothed(dB)

50.00000	99.21269	640.60789	99.21269
100.00000	81.28086	517.09025	81.28086
150.00000	80.68797	505.57287	80.68797
200.00000	75.51857	407.42169	75.51857
250.00000	84.97654	400.79359	84.97654
300.00000	89.10887	329.80259	89.10887
350.00000	84.15056	328.29332	84.15056
400.00000	87.74893	323.99333	87.74893
450.00000	85.80028	302.86891	85.80028
500.00000	89.01251	329.96448	89.01251
550.00000	89.40566	319.78012	89.40566
600.00000	91.78336	334.86143	91.78336
650.00000	94.24441	320.56639	94.24441
700.00000	95.80696	316.88228	95.80696
750.00000	98.27641	309.64294	98.27641
800.00000	100.16449	299.74238	100.16449
850.00000	102.91891	287.16715	102.91891
900.00000	104.38777	269.65741	104.38777
950.00000	105.67254	252.54310	105.67254
1000.00000	105.58793	234.49998	105.58793
1050.00000	105.02161	225.83110	105.02161
1100.00000	105.22846	213.98410	105.22846
1150.00000	104.27493	203.10327	104.27493
1200.00000	103.69054	200.01491	103.69054
1250.00000	103.92404	190.95361	103.92404
1300.00000	102.80900	182.19706	102.80900
1350.00000	102.13706	179.59215	102.13706
1400.00000	101.70855	177.52715	101.70855
1450.00000	101.52292	179.67002	101.52292
1500.00000	102.04284	177.70188	102.04284
1550.00000	101.60335	175.71567	101.60335
1600.00000	102.78249	174.54823	102.78249
1650.00000	103.27844	163.19016	103.27844
1700.00000	102.06668	160.99023	102.06668
1750.00000	101.87371	158.01598	101.87371
1800.00000	101.20372	156.42091	101.20372
1850.00000	101.42838	159.14933	101.42838
1900.00000	102.31698	159.62343	102.31698
1950.00000	103.21609	150.85547	103.21609
2000.00000	103.12348	142.11786	103.12348
2050.00000	101.95621	138.00353	101.95621
2100.00000	102.17263	137.65935	102.17263
2150.00000	101.59313	131.59525	101.59313
2200.00000	100.93844	129.02427	100.93844
2250.00000	100.36605	127.17748	100.36605
2300.00000	99.87486	129.09776	99.87486
2350.00000	100.00166	128.70462	100.00166
2400.00000	99.77959	127.57823	99.77959
2450.00000	99.74231	127.21410	99.74231
2500.00000	99.21973	126.33081	99.21973
2550.00000	98.80947	131.17000	98.80947
2600.00000	98.90393	136.98878	98.90393
2650.00000	99.69596	144.33250	99.69596
2700.00000	101.66294	145.79355	101.66294
2750.00000	103.08532	137.97373	103.08532
2800.00000	103.68102	128.04428	103.68102
2850.00000	103.68521	119.76471	103.68521
2900.00000	103.33819	113.19482	103.33819
2950.00000	102.98813	109.25732	102.98813
3000.00000	102.62705	105.28864	102.62705
3050.00000	102.20101	102.23857	102.20101
3100.00000	101.97053	99.99820	101.97053
3150.00000	101.58111	95.78930	101.58111
3200.00000	101.03799	93.11853	101.03799
3250.00000	100.27163	91.45771	100.27163
3300.00000	99.38766	90.05992	99.38766
3350.00000	98.16817	91.24837	98.16817
3400.00000	97.24690	98.93423	97.24690
3450.00000	97.08060	107.32532	97.08060
3500.00000	97.46632	114.03787	97.46632
3550.00000	97.83394	117.65699	97.83394
3600.00000	98.14931	120.03394	98.14931
3650.00000	98.01587	123.15475	98.01587
3700.00000	97.76022	131.43131	97.76022
3750.00000	98.55391	143.87499	98.55391
3800.00000	100.26868	153.36262	100.26868
3850.00000	102.21907	156.72750	102.21907
3900.00000	104.17731	156.84810	104.17731
3950.00000	105.83799	153.96142	105.83799
4000.00000	107.15957	149.72472	107.15957
4050.00000	108.28447	144.94014	108.28447
4100.00000	109.17759	141.10159	109.17759
4150.00000	110.19028	137.68508	110.19028
4200.00000	110.88154	134.06159	110.88154
4250.00000	111.72088	131.46225	111.72088
4300.00000	112.59923	128.99270	112.59923
4350.00000	113.57940	126.54977	113.57940
4400.00000	114.69481	124.04096	114.69481
4450.00000	115.92967	120.75127	115.92967
4500.00000	117.27040	116.33137	117.27040
4550.00000	118.66095	110.42169	118.66095
4600.00000	120.01782	103.27243	120.01782
4650.00000	121.40245	94.76285	121.40245
4700.00000	122.69741	84.24359	122.69741
4750.00000	123.81757	71.83084	123.81757
4800.00000	124.65622	57.53217	124.65622
4850.00000	125.06037	42.24277	125.06037
4900.00000	124.99090	26.78648	124.99090
4950.00000	124.44635	12.32718	124.44635
5000.00000	123.43174	 0.25633	123.43174
5050.00000	122.37985	-8.13408	122.37985
5100.00000	121.18874	-17.68655	121.18874
5150.00000	118.71338	-20.51793	118.71338
5200.00000	117.49461	-2.48368	117.49461
5250.00000	120.55087	 4.07052	120.55087
5300.00000	122.35356	-8.93956	122.35356
5350.00000	122.71220	-22.51814	122.71220
5400.00000	122.49207	-33.62833	122.49207
5450.00000	122.07659	-42.53998	122.07659
5500.00000	121.60900	-50.15075	121.60900
5550.00000	121.14161	-56.70853	121.14161
5600.00000	120.67820	-62.66576	120.67820
5650.00000	120.24044	-68.11348	120.24044
5700.00000	119.79797	-73.30596	119.79797
5750.00000	119.38961	-78.00832	119.38961
5800.00000	118.97264	-82.54149	118.97264
5850.00000	118.58585	-86.90619	118.58585
5900.00000	118.21259	-91.00953	118.21259
5950.00000	117.85406	-95.02570	117.85406
6000.00000	117.50600	-98.75001	117.50600
6050.00000	117.15044	-102.56966	117.15044
6100.00000	116.81515	-106.22645	116.81515
6150.00000	116.48292	-109.75393	116.48292
6200.00000	116.14818	-113.15481	116.14818
6250.00000	115.83908	-116.51889	115.83908
6300.00000	115.53361	-119.79898	115.53361
6350.00000	115.22999	-123.12443	115.22999
6400.00000	114.91991	-126.30156	114.91991
6450.00000	114.64458	-129.48736	114.64458
6500.00000	114.32423	-132.56045	114.32423
6550.00000	114.00878	-135.44550	114.00878
6600.00000	113.70319	-138.23889	113.70319
6650.00000	113.39910	-140.93034	113.39910
6700.00000	113.09557	-143.67673	113.09557
6750.00000	112.80369	-146.13488	112.80369
6800.00000	112.52460	-148.41686	112.52460
6850.00000	112.25331	-150.57127	112.25331
6900.00000	111.99069	-152.70768	111.99069
6950.00000	111.76760	-154.69067	111.76760
7000.00000	111.55959	-156.72729	111.55959
7050.00000	111.35225	-158.88845	111.35225
7100.00000	111.18106	-161.04755	111.18106
7150.00000	111.00227	-162.96408	111.00227
7200.00000	110.82862	-164.92217	110.82862
7250.00000	110.65439	-166.77786	110.65439
7300.00000	110.53436	-168.55609	110.53436
7350.00000	110.40560	-170.17669	110.40560
7400.00000	110.34081	-172.00137	110.34081
7450.00000	110.29549	-173.91455	110.29549
7500.00000	110.28029	-175.84423	110.28029
7550.00000	110.28736	-177.95317	110.28736
7600.00000	110.29062	-180.20061	110.29062
7650.00000	110.30040	-182.65432	110.30040
7700.00000	110.37729	-185.35255	110.37729
7750.00000	110.38698	-188.32499	110.38698
7800.00000	110.42616	-191.56162	110.42616
7850.00000	110.42536	-195.11517	110.42536
7900.00000	110.38965	-198.69039	110.38965
7950.00000	110.30903	-202.56548	110.30903
8000.00000	110.19215	-206.41072	110.19215
8050.00000	110.04327	-210.53270	110.04327
8100.00000	109.87137	-213.88632	109.87137
8150.00000	109.61394	-217.51557	109.61394
8200.00000	109.37673	-220.71561	109.37673
8250.00000	109.08836	-224.38415	109.08836
8300.00000	108.83855	-227.68908	108.83855
8350.00000	108.53655	-230.61397	108.53655
8400.00000	108.22072	-233.93710	108.22072
8450.00000	107.82215	-236.59587	107.82215
8500.00000	107.48087	-239.25096	107.48087
8550.00000	107.16301	-241.47332	107.16301
8600.00000	106.82140	-243.86067	106.82140
8650.00000	106.47130	-245.88755	106.47130
8700.00000	106.16819	-248.48007	106.16819
8750.00000	105.79644	-249.59938	105.79644
8800.00000	105.49809	-251.83209	105.49809
8850.00000	105.16170	-253.74801	105.16170
8900.00000	104.92665	-255.23417	104.92665
8950.00000	104.69787	-257.11834	104.69787
9000.00000	104.42199	-258.78675	104.42199
9050.00000	104.28579	-260.68190	104.28579
9100.00000	104.13354	-262.16621	104.13354
9150.00000	104.01358	-263.67009	104.01358
9200.00000	103.93406	-265.12522	103.93406
9250.00000	103.76076	-266.41518	103.76076
9300.00000	103.65224	-267.69667	103.65224
9350.00000	103.55668	-269.18591	103.55668
9400.00000	103.34755	-270.16562	103.34755
9450.00000	103.28842	-271.72045	103.28842
9500.00000	103.21567	-273.06776	103.21567
9550.00000	103.11128	-274.93182	103.11128
9600.00000	103.11532	-277.20728	103.11532
9650.00000	103.08993	-279.59115	103.08993
9700.00000	103.08951	-281.16776	103.08951
9750.00000	103.16085	-283.73276	103.16085
9800.00000	103.09372	-285.16619	103.09372
9850.00000	103.06818	-286.37600	103.06818
9900.00000	102.87945	-288.14958	102.87945
9950.00000	102.73230	-289.24982	102.73230
10000.00000	102.55380	-291.24323	102.55380
10050.00000	102.31632	-293.28430	102.31632
10100.00000	102.07948	-295.63879	102.07948
10150.00000	101.80165	-298.76988	101.80165
10200.00000	101.67142	-301.65280	101.67142
10250.00000	101.53476	-304.62247	101.53476
10300.00000	101.60712	-307.31009	101.60712
10350.00000	101.54150	-309.34693	101.54150
10400.00000	101.45268	-311.48941	101.45268
10450.00000	101.47146	-313.30254	101.47146
10500.00000	101.41357	-314.85748	101.41357
10550.00000	101.27883	-316.79362	101.27883
10600.00000	101.07883	-318.73037	101.07883
10650.00000	100.86508	-320.69620	100.86508
10700.00000	100.70469	-323.98565	100.70469
10750.00000	100.62192	-326.96587	100.62192
10800.00000	100.51105	-329.59989	100.51105
10850.00000	100.45748	-333.13337	100.45748
10900.00000	100.40849	-335.30845	100.40849
10950.00000	100.31124	-337.09772	100.31124
11000.00000	100.15669	-339.06087	100.15669
11050.00000	99.80025	-340.93877	99.80025
11100.00000	99.50611	-343.52354	99.50611
11150.00000	99.09672	-345.77077	99.09672
11200.00000	98.86791	-348.32078	98.86791
11250.00000	98.54965	-351.20492	98.54965
11300.00000	98.27938	-353.96774	98.27938
11350.00000	98.06771	-355.61669	98.06771
11400.00000	97.75657	-357.19818	97.75657
11450.00000	97.55247	-358.97496	97.55247
11500.00000	97.39695	-359.37321	97.39695
11550.00000	96.98873	-360.33486	96.98873
11600.00000	96.77225	-362.54206	96.77225
11650.00000	96.46753	-363.15109	96.46753
11700.00000	96.31269	-364.83967	96.31269
11750.00000	96.21368	-366.62033	96.21368
11800.00000	96.14824	-368.64841	96.14824
11850.00000	96.14777	-369.00205	96.14777
11900.00000	95.89960	-370.59559	95.89960
11950.00000	95.79298	-371.37354	95.79298
12000.00000	95.55530	-372.52129	95.55530
12050.00000	95.27144	-373.97009	95.27144
12100.00000	95.12285	-377.07785	95.12285
12150.00000	94.92033	-379.55068	94.92033
12200.00000	94.84490	-382.31384	94.84490
12250.00000	94.75296	-384.27236	94.75296
12300.00000	95.72931	-386.35326	95.72931
12350.00000	94.38631	-387.95850	94.38631
12400.00000	94.05885	-388.73784	94.05885
12450.00000	93.69470	-390.25986	93.69470
12500.00000	93.28211	-392.20102	93.28211
12550.00000	92.88151	-394.12275	92.88151
12600.00000	92.49282	-396.56150	92.49282
12650.00000	92.38922	-398.21451	92.38922
12700.00000	92.00944	-399.12987	92.00944
12750.00000	91.62722	-400.23298	91.62722
12800.00000	91.24582	-400.29808	91.24582
12850.00000	90.59576	-400.54978	90.59576
12900.00000	90.18111	-401.68070	90.18111
12950.00000	89.92680	-402.61110	89.92680
13000.00000	89.69722	-404.34021	89.69722
13050.00000	89.59307	-403.40168	89.59307
13100.00000	89.39412	-402.83573	89.39412
13150.00000	89.22003	-403.03232	89.22003
13200.00000	88.97790	-400.81009	88.97790
13250.00000	88.60794	-400.29142	88.60794
13300.00000	88.13223	-398.18723	88.13223
13350.00000	87.78230	-400.27567	87.78230
13400.00000	87.79441	-401.15783	87.79441
13450.00000	87.43221	-400.78289	87.43221
13500.00000	87.55103	-399.34933	87.55103
13550.00000	87.28687	-399.37753	87.28687
13600.00000	87.14386	-396.90331	87.14386
13650.00000	86.92625	-395.06145	86.92625
13700.00000	86.57529	-394.41953	86.57529
13750.00000	86.27082	-394.01078	86.27082
13800.00000	86.20615	-394.50478	86.20615
13850.00000	86.04477	-395.08472	86.04477
13900.00000	86.00858	-394.70272	86.00858
13950.00000	86.20829	-393.22272	86.20829
14000.00000	86.42890	-390.26916	86.42890
14050.00000	86.31807	-390.07777	86.31807
14100.00000	86.23536	-388.52583	86.23536
14150.00000	86.35325	-387.25716	86.35325
14200.00000	86.51082	-385.61492	86.51082
14250.00000	86.73471	-383.07646	86.73471
14300.00000	86.90628	-381.67507	86.90628
14350.00000	86.83770	-378.89777	86.83770
14400.00000	86.54836	-378.70406	86.54836
14450.00000	86.75480	-378.40092	86.75480
14500.00000	86.96202	-378.83609	86.96202
14550.00000	87.24448	-377.42797	87.24448
14600.00000	87.51248	-378.14167	87.51248
14650.00000	88.25844	-374.47466	88.25844
14700.00000	88.34932	-376.07543	88.34932
14750.00000	88.58457	-375.30007	88.58457
14800.00000	88.81837	-373.99833	88.81837
14850.00000	89.21697	-373.98521	89.21697
14900.00000	89.66174	-374.54823	89.66174
14950.00000	89.90316	-375.99642	89.90316
15000.00000	90.25492	-376.42186	90.25492
15050.00000	90.47526	-375.71098	90.47526
15100.00000	90.88106	-376.76683	90.88106
15150.00000	91.39999	-377.43831	91.39999
15200.00000	91.54835	-376.04332	91.54835
15250.00000	91.72875	-377.11437	91.72875
15300.00000	92.10626	-377.99029	92.10626
15350.00000	92.43875	-378.69918	92.43875
15400.00000	92.68757	-378.30610	92.68757
15450.00000	93.01246	-379.87041	93.01246
15500.00000	93.47310	-380.72490	93.47310
15550.00000	93.67203	-382.47629	93.67203
15600.00000	94.11341	-385.64384	94.11341
15650.00000	94.78252	-384.66018	94.78252
15700.00000	95.03165	-386.19028	95.03165
15750.00000	95.52141	-386.88469	95.52141
15800.00000	95.90346	-387.16764	95.90346
15850.00000	96.04768	-388.86763	96.04768
15900.00000	96.32886	-391.77897	96.32886
15950.00000	96.87320	-393.59845	96.87320
16000.00000	97.20088	-394.44046	97.20088
16050.00000	97.60543	-396.97166	97.60543
16100.00000	97.81336	-399.44151	97.81336
16150.00000	98.12687	-401.97959	98.12687
16200.00000	98.52147	-405.17553	98.52147
16250.00000	98.95706	-406.48940	98.95706
16300.00000	99.41820	-408.67549	99.41820
16350.00000	99.59364	-411.40632	99.59364
16400.00000	99.91860	-413.70788	99.91860
16450.00000	100.14397	-416.20243	100.14397
16500.00000	100.37007	-419.46642	100.37007
16550.00000	100.70137	-422.92961	100.70137
16600.00000	100.89634	-425.20517	100.89634
16650.00000	101.04311	-428.11527	101.04311
16700.00000	101.34165	-430.31808	101.34165
16750.00000	101.44185	-433.18256	101.44185
16800.00000	101.59133	-436.29825	101.59133
16850.00000	101.89896	-439.00170	101.89896
16900.00000	102.02246	-441.52729	102.02246
16950.00000	102.22556	-444.17280	102.22556
17000.00000	102.25000	-446.38512	102.25000
17050.00000	102.43780	-448.23566	102.43780
17100.00000	102.52499	-450.22949	102.52499
17150.00000	102.89020	-453.69444	102.89020
17200.00000	103.02822	-455.51872	103.02822
17250.00000	103.17000	-458.46873	103.17000
17300.00000	103.43787	-460.49695	103.43787
17350.00000	103.47897	-462.81096	103.47897
17400.00000	103.71404	-465.43352	103.71404
17450.00000	103.83913	-468.21200	103.83913
17500.00000	104.05664	-470.99044	104.05664
17550.00000	104.24800	-473.50120	104.24800
17600.00000	104.51206	-475.79355	104.51206
17650.00000	104.64675	-479.47133	104.64675
17700.00000	104.83057	-482.20592	104.83057
17750.00000	105.10126	-484.57861	105.10126
17800.00000	105.17843	-488.10700	105.17843
17850.00000	105.38112	-490.42256	105.38112
17900.00000	105.47252	-493.40937	105.47252
17950.00000	105.69251	-496.86749	105.69251
18000.00000	105.80045	-500.18714	105.80045
18050.00000	106.06309	-503.07787	106.06309
18100.00000	106.12993	-506.51592	106.12993
18150.00000	106.22068	-509.03360	106.22068
18200.00000	106.26001	-512.93632	106.26001
18250.00000	106.42657	-515.25573	106.42657
18300.00000	106.58798	-518.35147	106.58798
18350.00000	106.68846	-521.46847	106.68846
18400.00000	106.70326	-524.92387	106.70326
18450.00000	106.74913	-529.34729	106.74913
18500.00000	106.86484	-532.16910	106.86484
18550.00000	106.91254	-534.85099	106.91254
18600.00000	107.08756	-538.63967	107.08756
18650.00000	107.02324	-541.31890	107.02324
18700.00000	107.05770	-545.08837	107.05770
18750.00000	107.17811	-548.11529	107.17811
18800.00000	107.33150	-550.77683	107.33150
18850.00000	107.24618	-554.45678	107.24618
18900.00000	107.26649	-557.40611	107.26649
18950.00000	107.31603	-561.15884	107.31603
19000.00000	107.21589	-564.15677	107.21589
19050.00000	107.37916	-567.50533	107.37916
19100.00000	107.31957	-570.65589	107.31957
19150.00000	107.45929	-573.71297	107.45929
19200.00000	107.40613	-576.65245	107.40613
19250.00000	107.38339	-580.94212	107.38339
19300.00000	107.31246	-583.63736	107.31246
19350.00000	107.31097	-587.00219	107.31097
19400.00000	107.25228	-590.02555	107.25228
19450.00000	107.29529	-592.75428	107.29529
19500.00000	107.17350	-596.77659	107.17350
19550.00000	107.16426	-599.97394	107.16426
19600.00000	107.18513	-603.74731	107.18513
19650.00000	107.06519	-606.40973	107.06519
19700.00000	106.87828	-609.73672	106.87828
19750.00000	106.79872	-612.47832	106.79872
19800.00000	106.80962	-616.33867	106.80962
19850.00000	106.73021	-619.19111	106.73021
19900.00000	106.59474	-622.92799	106.59474
19950.00000	106.44778	-626.03622	106.44778
20000.00000	106.35180	-629.01242	106.35180
20050.00000	106.21532	-632.00940	106.21532
20100.00000	106.00288	-635.09502	106.00288
20150.00000	105.91804	-637.07282	105.91804
20200.00000	105.72138	-640.75188	105.72138
20250.00000	105.49567	-643.38751	105.49567
20300.00000	105.23095	-646.07011	105.23095
20350.00000	105.15220	-648.86806	105.15220
20400.00000	104.88724	-650.42216	104.88724
20450.00000	104.59566	-652.95571	104.59566
20500.00000	104.46201	-655.37393	104.46201
20550.00000	104.02627	-656.73798	104.02627
20600.00000	103.92893	-658.39059	103.92893
20650.00000	103.70907	-659.89686	103.70907
20700.00000	103.45383	-661.29255	103.45383
20750.00000	103.32643	-662.40195	103.32643
20800.00000	103.11465	-663.12382	103.11465
20850.00000	103.04009	-664.02689	103.04009
20900.00000	102.85534	-664.72128	102.85534
20950.00000	102.75213	-664.76642	102.75213
21000.00000	102.69602	-665.09914	102.69602
21050.00000	102.84121	-665.23536	102.84121
21100.00000	102.84907	-665.33576	102.84907
21150.00000	103.01478	-666.06229	103.01478
21200.00000	103.17959	-666.23091	103.17959
21250.00000	103.33373	-668.33070	103.33373
21300.00000	103.61168	-668.87604	103.61168
21350.00000	103.78867	-670.19303	103.78867
21400.00000	104.00047	-672.22022	104.00047
21450.00000	104.19389	-674.27873	104.19389
21500.00000	104.41036	-676.81038	104.41036
21550.00000	104.48022	-678.81143	104.48022
21600.00000	104.70678	-681.54068	104.70678
21650.00000	104.78049	-684.19615	104.78049
21700.00000	104.86227	-686.59670	104.86227
21750.00000	104.98973	-689.26074	104.98973
21800.00000	105.04364	-691.90503	105.04364
21850.00000	105.05000	-694.37975	105.05000
21900.00000	105.09454	-697.10549	105.09454
21950.00000	105.14073	-699.46580	105.14073
22000.00000	105.19599	-701.79502	105.19599
22050.00000	105.20910	-704.04222	105.20910
22100.00000	105.18012	-706.54280	105.18012
22150.00000	105.15021	-708.97163	105.15021
22200.00000	105.24021	-711.18243	105.24021
22250.00000	105.15787	-713.03406	105.15787
22300.00000	105.07132	-715.46021	105.07132
22350.00000	105.13860	-717.86714	105.13860
22400.00000	105.16504	-720.17475	105.16504
22450.00000	105.05228	-721.96372	105.05228
22500.00000	104.99827	-723.05669	104.99827
22550.00000	104.97773	-725.14022	104.97773
22600.00000	104.96052	-727.98627	104.96052
22650.00000	104.95720	-729.56376	104.95720
22700.00000	104.97911	-731.33396	104.97911
22750.00000	104.92777	-731.10906	104.92777
22800.00000	104.94262	-735.12430	104.94262
