---ACOUSTIC CALIBRATION---
Filename: C:\Data\AZH DATA\AZH61\RightSecondary.calib
Date: 8/27/2019 3:31:47 PM
Format: 4
Probe Tube Correction File: C:\Data\Probe Tube Calibrations\50_ProbeTube.calib
Experiment VIs: 850
EPL_CFTS.exe V12.0.1 (2012)
DAQmx V9.6

Attenuation (dB): 40.000000
Min Freq (Hz): 50.000000
Max Freq (Hz): 49950.000000
Freq Step (Hz): 50.000000
Sample Rate (Hz): 100000.000000
[Smoothing]
Method=None
MA.Iterations=0
MA.Length=0
Loess.Length=0
Loess.Type=Linear
Loess.Robust=FALSE


Freq(Hz)	Mag(dB)	Phase(deg)	Unsmoothed(dB)

50.00000	97.45764	581.54296	97.45764
100.00000	74.77364	574.95581	74.77364
150.00000	73.77191	543.07023	73.77191
200.00000	75.49554	556.20367	75.49554
250.00000	81.31842	562.21426	81.31842
300.00000	82.31393	559.82291	82.31393
350.00000	68.75543	578.32576	68.75543
400.00000	76.97104	569.20683	76.97104
450.00000	63.52975	559.64921	63.52975
500.00000	77.40983	580.47368	77.40983
550.00000	71.36099	569.63794	71.36099
600.00000	81.38603	583.64928	81.38603
650.00000	70.83028	564.89125	70.83028
700.00000	81.96456	571.09168	81.96456
750.00000	73.95816	559.21999	73.95816
800.00000	82.52167	554.32751	82.52167
850.00000	68.86550	520.60094	68.86550
900.00000	75.52283	534.73210	75.52283
950.00000	62.01510	513.80786	62.01510
1000.00000	74.07835	588.32658	74.07835
1050.00000	56.10962	577.11186	56.10962
1100.00000	71.36537	616.66498	71.36537
1150.00000	66.63148	579.26413	66.63148
1200.00000	73.15852	652.43771	73.15852
1250.00000	69.28198	568.10187	69.28198
1300.00000	72.11837	637.59378	72.11837
1350.00000	70.86385	552.84498	70.86385
1400.00000	71.21250	687.57615	71.21250
1450.00000	71.09364	543.83284	71.09364
1500.00000	65.59181	598.75368	65.59181
1550.00000	70.97163	533.91224	70.97163
1600.00000	73.71726	435.24149	73.71726
1650.00000	74.73371	531.65235	74.73371
1700.00000	70.89840	424.97304	70.89840
1750.00000	71.14280	509.77649	71.14280
1800.00000	75.09958	455.59868	75.09958
1850.00000	70.05264	498.88167	70.05264
1900.00000	74.35713	476.30975	74.35713
1950.00000	67.80371	486.74981	67.80371
2000.00000	77.53127	491.41586	77.53127
2050.00000	66.90660	462.92019	66.90660
2100.00000	76.03104	478.50488	76.03104
2150.00000	69.23930	435.79838	69.23930
2200.00000	70.52760	494.17898	70.52760
2250.00000	69.01307	428.10425	69.01307
2300.00000	69.91826	469.28644	69.91826
2350.00000	70.56983	408.70129	70.56983
2400.00000	60.61412	378.08139	60.61412
2450.00000	71.30243	406.74081	71.30243
2500.00000	59.20583	429.30344	59.20583
2550.00000	70.79170	420.45128	70.79170
2600.00000	68.73478	382.56894	68.73478
2650.00000	69.64778	424.81882	69.64778
2700.00000	61.44668	394.91095	61.44668
2750.00000	68.09626	423.70596	68.09626
2800.00000	66.30699	395.77732	66.30699
2850.00000	66.43174	420.18270	66.43174
2900.00000	64.45925	385.60056	64.45925
2950.00000	48.45382	270.47327	48.45382
3000.00000	59.40866	458.51394	59.40866
3050.00000	51.67211	589.74041	51.67211
3100.00000	54.84231	509.53174	54.84231
3150.00000	60.94284	622.44122	60.94284
3200.00000	45.14939	602.77237	45.14939
3250.00000	48.63115	555.22807	48.63115
3300.00000	57.98041	725.62337	57.98041
3350.00000	62.50417	798.67405	62.50417
3400.00000	60.09683	867.62542	60.09683
3450.00000	60.85692	782.83771	60.85692
3500.00000	66.14306	842.90509	66.14306
3550.00000	66.25866	833.01095	66.25866
3600.00000	67.64330	865.94192	67.64330
3650.00000	59.66595	861.81470	59.66595
3700.00000	69.70581	834.10624	69.70581
3750.00000	69.65636	848.47734	69.65636
3800.00000	72.90266	819.60410	72.90266
3850.00000	71.54204	803.28735	71.54204
3900.00000	73.03261	799.96682	73.03261
3950.00000	75.02622	788.06494	75.02622
4000.00000	74.03863	782.23579	74.03863
4050.00000	76.97492	780.16863	76.97492
4100.00000	77.01325	771.99837	77.01325
4150.00000	78.24967	766.31924	78.24967
4200.00000	79.10964	755.55993	79.10964
4250.00000	79.47139	751.18635	79.47139
4300.00000	79.75384	734.00979	79.75384
4350.00000	78.96192	724.33436	78.96192
4400.00000	78.89694	720.47681	78.89694
4450.00000	78.85720	702.81600	78.85720
4500.00000	78.02782	694.89499	78.02782
4550.00000	77.55270	684.51029	77.55270
4600.00000	78.01548	670.87784	78.01548
4650.00000	78.71617	672.15256	78.71617
4700.00000	76.87214	663.51656	76.87214
4750.00000	76.52169	658.80856	76.52169
4800.00000	76.14393	648.29044	76.14393
4850.00000	74.61778	641.92893	74.61778
4900.00000	72.94991	632.55686	72.94991
4950.00000	72.46283	636.55595	72.46283
5000.00000	72.68681	622.38328	72.68681
5050.00000	69.79021	639.93098	69.79021
5100.00000	67.53312	638.43144	67.53312
5150.00000	65.92572	653.93982	65.92572
5200.00000	66.07874	645.54234	66.07874
5250.00000	69.68782	660.53155	69.68782
5300.00000	70.30419	647.23875	70.30419
5350.00000	71.64560	637.45667	71.64560
5400.00000	70.16305	629.90721	70.16305
5450.00000	70.61851	628.86459	70.61851
5500.00000	70.70669	622.02284	70.70669
5550.00000	70.49810	629.74407	70.49810
5600.00000	66.42949	626.28223	66.42949
5650.00000	71.99733	593.69148	71.99733
5700.00000	69.09733	631.52104	69.09733
5750.00000	69.70363	623.16361	69.70363
5800.00000	67.70185	619.24773	67.70185
5850.00000	69.92429	603.79427	69.92429
5900.00000	68.21463	599.21956	68.21463
5950.00000	67.09795	617.65311	67.09795
6000.00000	65.83520	638.23008	65.83520
6050.00000	69.59315	597.45247	69.59315
6100.00000	64.61223	589.75926	64.61223
6150.00000	68.85397	602.75811	68.85397
6200.00000	68.25531	611.16026	68.25531
6250.00000	68.97745	580.91778	68.97745
6300.00000	69.83227	592.32640	69.83227
6350.00000	65.19950	603.81047	65.19950
6400.00000	67.98627	591.80581	67.98627
6450.00000	69.23754	579.63626	69.23754
6500.00000	66.98136	578.47474	66.98136
6550.00000	66.94687	573.66721	66.94687
6600.00000	69.85565	586.82248	69.85565
6650.00000	65.06706	577.43462	65.06706
6700.00000	68.63760	575.74842	68.63760
6750.00000	65.11036	580.73716	65.11036
6800.00000	67.77826	575.80174	67.77826
6850.00000	67.23502	565.36366	67.23502
6900.00000	65.63815	563.08524	65.63815
6950.00000	68.29939	565.01287	68.29939
7000.00000	67.72136	556.89260	67.72136
7050.00000	65.97848	558.28945	65.97848
7100.00000	66.84605	555.17392	66.84605
7150.00000	69.32381	546.08844	69.32381
7200.00000	67.86479	549.26640	67.86479
7250.00000	69.61155	533.09659	69.61155
7300.00000	67.40241	531.29915	67.40241
7350.00000	67.15945	533.92316	67.15945
7400.00000	67.88150	518.36464	67.88150
7450.00000	65.29470	533.48269	65.29470
7500.00000	66.44404	538.51578	66.44404
7550.00000	68.26727	533.59472	68.26727
7600.00000	61.76190	529.07442	61.76190
7650.00000	66.81698	515.23703	66.81698
7700.00000	67.08081	512.05662	67.08081
7750.00000	67.35764	500.78984	67.35764
7800.00000	67.86758	492.39027	67.86758
7850.00000	66.39173	500.89154	66.39173
7900.00000	65.38724	501.28140	65.38724
7950.00000	65.47861	493.82243	65.47861
8000.00000	65.62011	487.34315	65.62011
8050.00000	63.32955	480.38368	63.32955
8100.00000	65.64163	479.84118	65.64163
8150.00000	63.94934	484.35725	63.94934
8200.00000	63.45547	472.58133	63.45547
8250.00000	63.43049	477.49709	63.43049
8300.00000	62.62690	456.21530	62.62690
8350.00000	63.35009	457.02760	63.35009
8400.00000	64.32376	476.48578	64.32376
8450.00000	63.14487	474.94979	63.14487
8500.00000	61.73515	461.25581	61.73515
8550.00000	61.59113	448.94128	61.59113
8600.00000	60.81409	450.75401	60.81409
8650.00000	62.69195	450.67553	62.69195
8700.00000	59.90504	443.82986	59.90504
8750.00000	60.73587	459.48940	60.73587
8800.00000	58.75920	454.98089	58.75920
8850.00000	58.29276	438.74475	58.29276
8900.00000	61.21254	433.96131	61.21254
8950.00000	61.56822	435.30794	61.56822
9000.00000	59.49865	448.28384	59.49865
9050.00000	56.94286	469.13194	56.94286
9100.00000	51.41683	428.93350	51.41683
9150.00000	57.79295	424.30281	57.79295
9200.00000	61.31520	442.86982	61.31520
9250.00000	57.47379	427.73692	57.47379
9300.00000	54.63018	437.87366	54.63018
9350.00000	52.79230	416.41389	52.79230
9400.00000	58.30070	422.60417	58.30070
9450.00000	54.30649	429.05179	54.30649
9500.00000	58.74914	449.13777	58.74914
9550.00000	53.80928	442.40836	53.80928
9600.00000	53.36253	435.28891	53.36253
9650.00000	56.67497	411.36033	56.67497
9700.00000	56.91022	437.84131	56.91022
9750.00000	57.48890	431.82671	57.48890
9800.00000	52.86758	429.95587	52.86758
9850.00000	53.03213	439.70252	53.03213
9900.00000	55.02267	416.13833	55.02267
9950.00000	56.87217	425.19982	56.87217
10000.00000	50.52650	422.60743	50.52650
10050.00000	53.46770	424.22610	53.46770
10100.00000	53.76131	406.32278	53.76131
10150.00000	56.45202	416.38698	56.45202
10200.00000	56.54492	416.06076	56.54492
10250.00000	51.84673	411.18495	51.84673
10300.00000	53.10782	421.18992	53.10782
10350.00000	52.84729	393.34246	52.84729
10400.00000	55.76256	405.47934	55.76256
10450.00000	54.72709	405.98300	54.72709
10500.00000	53.56010	399.78281	53.56010
10550.00000	53.25803	381.68986	53.25803
10600.00000	54.80082	402.01000	54.80082
10650.00000	55.39506	404.51280	55.39506
10700.00000	55.20931	404.45172	55.20931
10750.00000	52.10527	390.44625	52.10527
10800.00000	53.75162	383.71477	53.75162
10850.00000	53.15943	378.73521	53.15943
10900.00000	54.71796	392.29280	54.71796
10950.00000	52.91308	392.25963	52.91308
11000.00000	51.74833	374.30039	51.74833
11050.00000	53.82872	380.78072	53.82872
11100.00000	54.17405	376.17914	54.17405
11150.00000	52.48500	392.06361	52.48500
11200.00000	49.19590	374.39241	49.19590
11250.00000	53.00772	370.37963	53.00772
11300.00000	52.82077	378.42843	52.82077
11350.00000	52.31746	381.30286	52.31746
11400.00000	46.94610	361.82082	46.94610
11450.00000	50.60722	361.90521	50.60722
11500.00000	49.62608	370.26743	49.62608
11550.00000	51.60448	365.37087	51.60448
11600.00000	47.83143	368.39827	47.83143
11650.00000	50.64699	357.27820	50.64699
11700.00000	50.03921	367.00835	50.03921
11750.00000	50.31769	378.85641	50.31769
11800.00000	50.28409	364.14717	50.28409
11850.00000	50.53575	346.90065	50.53575
11900.00000	51.90892	363.47581	51.90892
11950.00000	47.73425	351.78541	47.73425
12000.00000	48.72356	371.40731	48.72356
12050.00000	50.40469	357.13872	50.40469
12100.00000	50.99674	337.66825	50.99674
12150.00000	48.71327	358.97615	48.71327
12200.00000	47.78004	362.74467	47.78004
12250.00000	49.33530	325.19900	49.33530
12300.00000	49.85447	355.96352	49.85447
12350.00000	46.43190	375.31063	46.43190
12400.00000	48.07638	353.02839	48.07638
12450.00000	49.22646	338.85268	49.22646
12500.00000	50.09553	347.03643	50.09553
12550.00000	48.20649	358.68993	48.20649
12600.00000	45.52537	331.99860	45.52537
12650.00000	51.12922	322.76256	51.12922
12700.00000	52.97370	346.52521	52.97370
12750.00000	49.56149	319.90106	49.56149
12800.00000	47.91292	298.81155	47.91292
12850.00000	15.91452	290.03402	15.91452
12900.00000	47.06253	318.53542	47.06253
12950.00000	34.85980	345.43357	34.85980
13000.00000	48.37222	261.71382	48.37222
13050.00000	43.03383	317.73129	43.03383
13100.00000	46.65942	359.77537	46.65942
13150.00000	44.46772	342.75489	44.46772
13200.00000	47.05988	612.02146	47.05988
13250.00000	43.81407	675.45363	43.81407
13300.00000	43.70714	749.96728	43.70714
13350.00000	45.15786	867.86630	45.15786
13400.00000	46.14198	1024.43410	46.14198
13450.00000	48.43066	1086.66569	48.43066
13500.00000	46.44089	1118.28196	46.44089
13550.00000	48.39311	1360.54253	48.39311
13600.00000	39.95541	1403.26879	39.95541
13650.00000	49.70660	1484.71804	49.70660
13700.00000	42.39516	1514.91890	42.39516
13750.00000	43.79127	1742.57114	43.79127
13800.00000	51.80642	1792.50244	51.80642
13850.00000	47.74155	1808.79183	47.74155
13900.00000	45.37863	2057.47807	45.37863
13950.00000	51.86708	2137.41865	51.86708
14000.00000	36.69474	2224.10487	36.69474
14050.00000	48.69066	2249.85342	48.69066
14100.00000	49.57173	2464.47950	49.57173
14150.00000	51.79696	2472.32519	51.79696
14200.00000	42.03950	2573.78374	42.03950
14250.00000	47.10439	2810.89092	47.10439
14300.00000	45.72857	2848.80719	45.72857
14350.00000	52.16113	2900.28390	52.16113
14400.00000	42.54744	2869.92685	42.54744
14450.00000	44.29380	3146.50718	44.29380
14500.00000	49.62248	3228.43355	49.62248
14550.00000	43.88425	3302.88178	43.88425
14600.00000	41.30410	3273.39185	41.30410
14650.00000	45.55355	3211.92820	45.55355
14700.00000	52.62023	3266.22674	52.62023
14750.00000	34.11148	3543.70624	34.11148
14800.00000	42.67764	3543.89498	42.67764
14850.00000	56.03621	3587.96816	56.03621
14900.00000	49.65218	3630.91590	49.65218
14950.00000	48.23960	3583.79440	48.23960
15000.00000	48.48934	3525.41381	48.48934
15050.00000	51.26234	3675.21677	51.26234
15100.00000	47.96245	3944.29929	47.96245
15150.00000	52.61451	3922.86731	52.61451
15200.00000	50.51491	3985.52543	50.51491
15250.00000	42.09971	4079.89322	42.09971
15300.00000	49.17911	4270.35192	49.17911
15350.00000	51.87977	4357.00999	51.87977
15400.00000	53.17875	4421.65512	53.17875
15450.00000	48.12036	4390.55414	48.12036
15500.00000	55.08701	4329.19397	55.08701
15550.00000	51.01482	4443.42945	51.01482
15600.00000	53.33062	4579.09888	53.33062
15650.00000	46.20577	4691.15835	46.20577
15700.00000	57.69373	4726.14446	57.69373
15750.00000	48.79464	4996.97663	48.79464
15800.00000	57.33687	5021.44085	57.33687
15850.00000	53.21601	5089.12407	53.21601
15900.00000	42.57560	5229.32951	42.57560
15950.00000	56.06051	5389.60417	56.06051
16000.00000	55.73529	5391.63392	55.73529
16050.00000	49.96982	5420.73698	49.96982
16100.00000	55.74679	5385.10705	55.74679
16150.00000	55.05882	5387.46889	55.05882
16200.00000	54.43113	5352.35746	54.43113
16250.00000	59.00330	5376.25274	59.00330
16300.00000	53.21320	5431.81089	53.21320
16350.00000	58.13027	5377.78745	58.13027
16400.00000	55.50147	5351.93059	55.50147
16450.00000	55.02280	5395.77002	55.02280
16500.00000	55.78104	5347.67825	55.78104
16550.00000	60.85548	5339.71404	60.85548
16600.00000	61.16707	5373.07400	61.16707
16650.00000	50.40715	5633.72529	50.40715
16700.00000	60.21318	5706.20090	60.21318
16750.00000	57.39232	5704.57343	57.39232
16800.00000	57.86045	5672.88779	57.86045
16850.00000	61.32347	5690.95433	61.32347
16900.00000	56.20333	5689.65587	56.20333
16950.00000	57.66839	5660.57587	57.66839
17000.00000	58.53613	5677.91767	58.53613
17050.00000	53.11850	5721.27311	53.11850
17100.00000	58.98858	5671.31570	58.98858
17150.00000	61.88344	5690.28372	61.88344
17200.00000	58.03183	5670.26746	58.03183
17250.00000	63.15039	5657.25598	63.15039
17300.00000	59.19789	5676.38893	59.19789
17350.00000	59.51033	5660.96846	59.51033
17400.00000	55.46692	5640.79237	55.46692
17450.00000	61.03155	5679.50586	61.03155
17500.00000	55.09680	5680.85968	55.09680
17550.00000	64.64593	5655.61085	64.64593
17600.00000	60.86702	5673.72959	60.86702
17650.00000	58.90697	5637.44332	58.90697
17700.00000	64.64309	5657.38862	64.64309
17750.00000	58.66744	5655.13995	58.66744
17800.00000	61.17213	5615.19904	61.17213
17850.00000	62.08728	5643.80646	62.08728
17900.00000	59.43346	5646.63732	59.43346
17950.00000	65.45673	5614.29408	65.45673
18000.00000	61.28459	5640.39590	61.28459
18050.00000	61.31053	5631.53443	61.31053
18100.00000	64.22732	5623.04509	64.22732
18150.00000	59.26429	5623.54548	59.26429
18200.00000	62.44407	5597.87025	62.44407
18250.00000	62.50012	5651.07229	62.50012
18300.00000	58.98276	5603.52472	58.98276
18350.00000	62.96177	5601.79815	62.96177
18400.00000	58.69503	5616.97600	58.69503
18450.00000	62.32419	5578.81392	62.32419
18500.00000	64.95378	5610.86694	64.95378
18550.00000	61.69184	5602.05464	61.69184
18600.00000	62.65592	5577.17189	62.65592
18650.00000	62.36974	5586.80058	62.36974
18700.00000	61.09971	5582.30852	61.09971
18750.00000	64.17997	5572.98915	64.17997
18800.00000	61.59395	5577.50666	61.59395
18850.00000	62.79568	5560.13236	62.79568
18900.00000	62.04592	5577.22500	62.04592
18950.00000	60.95787	5570.43303	60.95787
19000.00000	59.11523	5564.35826	59.11523
19050.00000	61.84782	5584.56976	61.84782
19100.00000	60.11867	5563.40820	60.11867
19150.00000	61.70259	5552.38414	61.70259
19200.00000	63.13087	5569.33444	63.13087
19250.00000	62.92959	5545.37891	62.92959
19300.00000	64.06409	5574.38600	64.06409
19350.00000	60.77969	5554.17817	60.77969
19400.00000	62.78466	5550.82550	62.78466
19450.00000	59.79695	5546.30640	59.79695
19500.00000	63.39678	5530.20971	63.39678
19550.00000	61.42173	5544.41889	61.42173
19600.00000	61.60636	5527.59092	61.60636
19650.00000	62.90773	5539.70799	62.90773
19700.00000	58.77380	5545.33159	58.77380
19750.00000	61.13244	5517.10699	61.13244
19800.00000	60.17223	5537.54974	60.17223
19850.00000	57.06936	5527.43993	57.06936
19900.00000	62.68895	5537.79191	62.68895
19950.00000	60.92597	5530.21297	60.92597
20000.00000	61.56290	5508.85217	61.56290
20050.00000	60.35512	5536.94140	60.35512
20100.00000	60.18752	5512.20146	60.18752
20150.00000	62.00689	5517.29089	62.00689
20200.00000	58.50434	5505.98858	58.50434
20250.00000	61.57137	5500.05938	61.57137
20300.00000	58.75453	5524.95189	58.75453
20350.00000	62.12199	5498.28468	62.12199
20400.00000	60.84269	5507.89408	60.84269
20450.00000	58.91398	5478.36133	58.91398
20500.00000	58.98765	5500.27048	58.98765
20550.00000	55.61139	5491.91340	55.61139
20600.00000	60.33047	5494.54709	60.33047
20650.00000	57.18071	5492.95289	57.18071
20700.00000	58.09707	5478.48408	58.09707
20750.00000	58.80983	5498.80800	58.80983
20800.00000	58.90439	5482.42628	58.90439
20850.00000	58.69427	5487.31401	58.69427
20900.00000	57.79925	5493.79272	57.79925
20950.00000	58.29583	5481.35274	58.29583
21000.00000	57.20778	5475.93503	57.20778
21050.00000	59.71558	5478.90200	59.71558
21100.00000	59.04809	5481.14389	59.04809
21150.00000	59.19954	5477.25435	59.19954
21200.00000	58.83085	5475.92644	58.83085
21250.00000	57.68165	5482.44478	57.68165
21300.00000	59.55453	5482.50317	59.55453
21350.00000	59.42850	5479.33205	59.42850
21400.00000	61.15926	5462.01953	61.15926
21450.00000	60.39944	5461.71384	60.39944
21500.00000	58.46679	5462.38382	58.46679
21550.00000	60.93929	5478.04861	60.93929
21600.00000	61.02921	5459.28542	61.02921
21650.00000	61.08198	5461.29285	61.08198
21700.00000	59.20584	5453.44455	59.20584
21750.00000	61.35573	5459.57450	61.35573
21800.00000	60.27679	5449.49603	60.27679
21850.00000	63.75759	5442.31398	63.75759
21900.00000	57.57425	5472.30594	57.57425
21950.00000	59.35678	5779.76083	59.35678
22000.00000	62.08997	5822.15311	62.08997
22050.00000	62.15388	6139.16320	62.15388
22100.00000	62.32740	6162.16468	62.32740
22150.00000	60.79374	6146.33621	60.79374
22200.00000	63.98338	6165.17093	63.98338
22250.00000	57.37009	6500.58131	57.37009
22300.00000	63.39961	6503.09728	63.39961
22350.00000	53.01801	6541.14342	53.01801
22400.00000	61.84517	6855.56088	61.84517
22450.00000	57.76814	6886.34848	57.76814
22500.00000	63.06744	7199.77579	63.06744
22550.00000	59.64968	7228.48316	59.64968
22600.00000	61.99412	7559.08163	61.99412
22650.00000	62.21291	7571.72801	62.21291
22700.00000	60.78528	7560.85629	60.78528
22750.00000	63.04667	7576.59911	63.04667
22800.00000	59.09324	7866.03617	59.09324
22850.00000	63.74014	7935.78577	63.74014
22900.00000	60.99888	8263.90086	60.99888
22950.00000	65.06370	8270.13416	65.06370
23000.00000	56.75463	8266.07475	56.75463
23050.00000	65.18626	8267.04081	65.18626
23100.00000	58.33679	8268.80669	58.33679
23150.00000	59.64433	8614.84597	59.64433
23200.00000	64.55931	8663.05661	64.55931
23250.00000	59.48239	8947.79881	59.48239
23300.00000	60.58851	9043.22419	60.58851
23350.00000	61.15045	9365.51255	61.15045
23400.00000	65.94828	9365.29133	65.94828
23450.00000	63.65103	9670.96862	63.65103
23500.00000	65.05954	9707.21651	65.05954
23550.00000	54.64875	10029.83094	54.64875
23600.00000	66.63060	10040.61346	66.63060
23650.00000	56.66607	10362.26621	56.66607
23700.00000	68.51108	10445.70800	68.51108
