---ACOUSTIC CALIBRATION---
Filename: C:\Data\CL0809 DATA\CL0809200\RightSecondary.calib
Date: 8/9/2019 10:17:25 AM
Format: 4
Probe Tube Correction File: C:\Data\Probe Tube Calibrations\74_ProbeTube.calib
Experiment VIs: 2128
EPL_CFTS.exe V15.0.1f5 (2015)
DAQmx V15.1

Attenuation (dB): 40.000000
Min Freq (Hz): 50.000000
Max Freq (Hz): 99950.000000
Freq Step (Hz): 50.000000
Sample Rate (Hz): 200000.000000
[Smoothing]
Method=None
MA.Iterations=0
MA.Length=0
Loess.Length=0
Loess.Type=Linear
Loess.Robust=FALSE


Freq(Hz)	Mag(dB)	Phase(deg)	Unsmoothed(dB)

50.00000	91.48609	121.39213	91.48609
100.00000	67.40815	246.57477	67.40815
150.00000	71.40511	423.26253	71.40511
200.00000	63.57369	516.45515	63.57369
250.00000	52.70540	720.40878	52.70540
300.00000	65.21671	879.51899	65.21671
350.00000	63.14253	1009.49421	63.14253
400.00000	59.18128	1070.44195	59.18128
450.00000	68.67913	1108.80599	68.67913
500.00000	72.91659	1215.73343	72.91659
550.00000	79.81821	1153.31221	79.81821
600.00000	78.98133	1108.58079	78.98133
650.00000	85.65108	1097.21039	85.65108
700.00000	85.24696	1097.16811	85.24696
750.00000	89.20466	1061.86683	89.20466
800.00000	90.37209	1043.63171	90.37209
850.00000	89.62821	1033.57112	89.62821
900.00000	90.11097	1027.12577	90.11097
950.00000	91.55334	1013.18948	91.55334
1000.00000	91.69067	1006.39049	91.69067
1050.00000	91.83157	990.99556	91.83157
1100.00000	91.12722	982.20008	91.12722
1150.00000	90.20515	979.30286	90.20515
1200.00000	89.52296	983.98226	89.52296
1250.00000	90.28491	988.62272	90.28491
1300.00000	91.41287	988.55374	91.41287
1350.00000	92.22331	986.94182	92.22331
1400.00000	93.13473	986.31041	93.13473
1450.00000	93.97838	984.64197	93.97838
1500.00000	95.38281	983.73177	95.38281
1550.00000	96.66702	977.91655	96.66702
1600.00000	97.99547	973.39815	97.99547
1650.00000	99.27343	969.15715	99.27343
1700.00000	103.43171	952.24471	103.43171
1750.00000	100.58196	930.76632	100.58196
1800.00000	100.33795	925.16615	100.33795
1850.00000	100.16047	917.57162	100.16047
1900.00000	100.11769	910.28762	100.11769
1950.00000	99.46444	903.69405	99.46444
2000.00000	98.74969	898.06745	98.74969
2050.00000	97.67402	897.54739	97.67402
2100.00000	97.65977	903.80013	97.65977
2150.00000	98.98962	902.03462	98.98962
2200.00000	99.37539	892.35374	99.37539
2250.00000	98.81185	886.39188	98.81185
2300.00000	98.42848	885.28977	98.42848
2350.00000	98.52878	882.62055	98.52878
2400.00000	98.65253	880.15457	98.65253
2450.00000	98.43593	875.88797	98.43593
2500.00000	97.96709	875.82292	97.96709
2550.00000	98.14967	875.85938	98.14967
2600.00000	98.37040	874.71183	98.37040
2650.00000	98.55095	874.13222	98.55095
2700.00000	98.84941	872.02855	98.84941
2750.00000	99.05408	870.38985	99.05408
2800.00000	99.36359	867.74306	99.36359
2850.00000	99.65038	865.72548	99.65038
2900.00000	99.98444	862.96352	99.98444
2950.00000	100.25908	860.36285	100.25908
3000.00000	100.52175	857.85951	100.52175
3050.00000	100.78274	854.57713	100.78274
3100.00000	101.01507	851.29058	101.01507
3150.00000	101.05078	848.30234	101.05078
3200.00000	101.23511	844.93895	101.23511
3250.00000	101.46862	842.44324	101.46862
3300.00000	101.49438	839.51618	101.49438
3350.00000	101.69574	837.39530	101.69574
3400.00000	101.77596	834.96517	101.77596
3450.00000	101.90025	833.59304	101.90025
3500.00000	102.06872	832.53982	102.06872
3550.00000	102.72685	830.02637	102.72685
3600.00000	102.79520	826.10308	102.79520
3650.00000	103.06536	825.37474	103.06536
3700.00000	103.30200	823.60096	103.30200
3750.00000	103.82158	820.57134	103.82158
3800.00000	104.66470	818.38145	104.66470
3850.00000	105.23485	808.55058	105.23485
3900.00000	105.54888	800.22297	105.54888
3950.00000	104.67609	796.38671	104.67609
4000.00000	104.21734	797.41766	104.21734
4050.00000	104.50139	798.17234	104.50139
4100.00000	105.06502	798.04382	105.06502
4150.00000	106.55090	794.90253	106.55090
4200.00000	107.36696	789.98798	107.36696
4250.00000	107.33643	777.27178	107.33643
4300.00000	107.29848	774.18925	107.29848
4350.00000	107.56723	769.75768	107.56723
4400.00000	107.82398	763.88704	107.82398
4450.00000	107.81554	756.96633	107.81554
4500.00000	107.83159	751.09029	107.83159
4550.00000	107.64046	746.01611	107.64046
4600.00000	107.58449	740.86326	107.58449
4650.00000	107.51162	736.38484	107.51162
4700.00000	107.40795	731.87434	107.40795
4750.00000	107.31571	727.56980	107.31571
4800.00000	107.26286	723.54949	107.26286
4850.00000	107.21730	719.12569	107.21730
4900.00000	107.16400	714.07855	107.16400
4950.00000	107.07820	709.37436	107.07820
5000.00000	106.93759	704.29877	106.93759
5050.00000	106.75491	699.28933	106.75491
5100.00000	106.51954	694.23036	106.51954
5150.00000	106.19311	689.29588	106.19311
5200.00000	105.72244	684.35890	105.72244
5250.00000	104.90530	681.28550	104.90530
5300.00000	104.75783	684.11147	104.75783
5350.00000	105.23283	679.74070	105.23283
5400.00000	105.08629	674.08384	105.08629
5450.00000	104.75140	669.71933	104.75140
5500.00000	104.42587	665.95942	104.42587
5550.00000	104.15192	662.81627	104.15192
5600.00000	103.86614	659.05544	103.86614
5650.00000	103.46672	655.99380	103.46672
5700.00000	103.11174	653.02856	103.11174
5750.00000	102.80619	650.37558	102.80619
5800.00000	102.47183	648.03277	102.47183
5850.00000	102.13180	645.70887	102.13180
5900.00000	101.81804	643.57271	101.81804
5950.00000	101.56337	641.61639	101.56337
6000.00000	101.32714	639.55087	101.32714
6050.00000	101.07959	637.33050	101.07959
6100.00000	100.81413	635.05561	100.81413
6150.00000	100.51390	632.97555	100.51390
6200.00000	100.20309	631.26441	100.20309
6250.00000	99.93179	629.55561	99.93179
6300.00000	99.63001	628.03653	99.63001
6350.00000	99.37942	626.60163	99.37942
6400.00000	99.12522	625.46600	99.12522
6450.00000	98.90140	624.35293	98.90140
6500.00000	98.69984	623.34703	98.69984
6550.00000	98.48118	622.43350	98.48118
6600.00000	98.31043	621.56686	98.31043
6650.00000	98.15274	621.05791	98.15274
6700.00000	98.04652	620.64871	98.04652
6750.00000	98.05714	620.45658	98.05714
6800.00000	98.15317	619.66347	98.15317
6850.00000	98.25227	618.10332	98.25227
6900.00000	98.33443	615.96179	98.33443
6950.00000	98.34902	613.38305	98.34902
7000.00000	98.30055	610.78631	98.30055
7050.00000	98.16451	608.18226	98.16451
7100.00000	97.97587	605.81777	97.97587
7150.00000	97.72211	603.52581	97.72211
7200.00000	97.48663	601.76968	97.48663
7250.00000	97.21808	600.65090	97.21808
7300.00000	96.97661	599.84180	96.97661
7350.00000	96.74024	599.22740	96.74024
7400.00000	96.52372	598.77031	96.52372
7450.00000	96.40650	599.04104	96.40650
7500.00000	96.32351	599.60891	96.32351
7550.00000	96.31483	599.92381	96.31483
7600.00000	96.41702	600.04007	96.41702
7650.00000	96.53488	600.04759	96.53488
7700.00000	96.72537	599.55491	96.72537
7750.00000	96.92360	598.67531	96.92360
7800.00000	97.09727	597.38723	97.09727
7850.00000	97.32308	595.82602	97.32308
7900.00000	97.45410	593.98255	97.45410
7950.00000	97.60624	592.15776	97.60624
8000.00000	97.69217	590.40668	97.69217
8050.00000	97.77386	588.33372	97.77386
8100.00000	97.85539	586.06923	97.85539
8150.00000	97.95661	584.49859	97.95661
8200.00000	97.99317	582.50513	97.99317
8250.00000	98.04107	580.58664	98.04107
8300.00000	98.12484	578.60859	98.12484
8350.00000	98.14144	576.71167	98.14144
8400.00000	98.21234	574.87811	98.21234
8450.00000	98.23464	572.93185	98.23464
8500.00000	98.29371	571.16561	98.29371
8550.00000	98.34319	569.61335	98.34319
8600.00000	98.44446	567.90849	98.44446
8650.00000	98.55968	566.36373	98.55968
8700.00000	98.61370	564.64552	98.61370
8750.00000	98.73248	562.73586	98.73248
8800.00000	98.83734	560.91613	98.83734
8850.00000	98.97115	559.06199	98.97115
8900.00000	99.07354	557.22515	99.07354
8950.00000	99.19615	555.26275	99.19615
9000.00000	99.29246	553.19529	99.29246
9050.00000	99.42912	551.26690	99.42912
9100.00000	99.56594	549.41727	99.56594
9150.00000	99.75912	547.14010	99.75912
9200.00000	99.88363	544.66580	99.88363
9250.00000	99.94585	542.39731	99.94585
9300.00000	100.12631	539.86411	100.12631
9350.00000	100.24604	537.08048	100.24604
9400.00000	100.33779	534.25441	100.33779
9450.00000	100.44987	531.52411	100.44987
9500.00000	100.57316	528.24805	100.57316
9550.00000	100.63222	525.33392	100.63222
9600.00000	100.73998	522.41142	100.73998
9650.00000	100.86723	519.32089	100.86723
9700.00000	100.89874	516.01039	100.89874
9750.00000	100.92645	512.89946	100.92645
9800.00000	100.91072	509.83108	100.91072
9850.00000	100.95171	506.82712	100.95171
9900.00000	100.95595	504.23674	100.95595
9950.00000	100.97319	501.49701	100.97319
10000.00000	101.03228	499.00690	101.03228
10050.00000	101.06969	496.04492	101.06969
10100.00000	101.10786	492.84399	101.10786
10150.00000	101.08838	489.76044	101.08838
10200.00000	101.07197	486.80925	101.07197
10250.00000	101.01381	484.22199	101.01381
10300.00000	101.02723	481.30770	101.02723
10350.00000	101.03554	478.56176	101.03554
10400.00000	100.96712	475.56172	100.96712
10450.00000	100.96199	472.59999	100.96199
10500.00000	100.98506	469.34295	100.98506
10550.00000	100.97192	466.52186	100.97192
10600.00000	101.04026	462.98999	101.04026
10650.00000	101.05934	459.51578	101.05934
10700.00000	101.04700	455.63689	101.04700
10750.00000	101.01723	452.23534	101.01723
10800.00000	101.02664	448.02729	101.02664
10850.00000	101.00515	444.02191	101.00515
10900.00000	100.92758	440.17577	100.92758
10950.00000	100.82166	436.06275	100.82166
11000.00000	100.74539	432.10422	100.74539
11050.00000	100.54685	427.84440	100.54685
11100.00000	100.35230	423.97615	100.35230
11150.00000	100.14514	419.89662	100.14514
11200.00000	99.89067	416.17767	99.89067
11250.00000	99.54639	411.92840	99.54639
11300.00000	99.22439	408.28978	99.22439
11350.00000	98.81896	404.39509	98.81896
11400.00000	98.38077	400.88536	98.38077
11450.00000	97.96327	397.29483	97.96327
11500.00000	97.52125	393.84245	97.52125
11550.00000	97.04250	390.60471	97.04250
11600.00000	96.55699	387.74352	96.55699
11650.00000	96.08315	384.89024	96.08315
11700.00000	95.61636	382.40919	95.61636
11750.00000	95.11348	380.10958	95.11348
11800.00000	94.63135	378.43019	94.63135
11850.00000	94.19503	376.93521	94.19503
11900.00000	93.68390	376.26160	93.68390
11950.00000	93.32806	375.20092	93.32806
12000.00000	92.97851	374.95385	92.97851
12050.00000	92.54337	374.84080	92.54337
12100.00000	92.11261	374.42706	92.11261
12150.00000	91.64443	374.03127	91.64443
12200.00000	91.18715	374.03144	91.18715
12250.00000	90.78667	374.35191	90.78667
12300.00000	90.30792	374.42184	90.30792
12350.00000	89.94399	374.63888	89.94399
12400.00000	89.52215	374.20536	89.52215
12450.00000	89.30528	374.36513	89.30528
12500.00000	89.01815	375.19176	89.01815
12550.00000	88.74085	375.43670	88.74085
12600.00000	88.53807	374.81188	88.53807
12650.00000	88.31845	376.40637	88.31845
12700.00000	88.19073	377.18378	88.19073
12750.00000	87.98183	378.37711	87.98183
12800.00000	87.99940	378.58863	87.99940
12850.00000	87.82708	379.78067	87.82708
12900.00000	87.69131	378.98158	87.69131
12950.00000	87.66408	377.95896	87.66408
13000.00000	87.58377	377.93715	87.58377
13050.00000	87.39912	377.08455	87.39912
13100.00000	87.52251	375.77199	87.52251
13150.00000	87.78505	375.42567	87.78505
13200.00000	88.11277	372.22816	88.11277
13250.00000	88.61902	368.43371	88.61902
13300.00000	89.51825	369.28659	89.51825
13350.00000	90.56440	368.79014	90.56440
13400.00000	91.60093	374.04636	91.60093
13450.00000	92.38016	384.14816	92.38016
13500.00000	92.02511	398.71922	92.02511
13550.00000	90.93627	406.27053	90.93627
13600.00000	89.27187	409.29414	89.27187
13650.00000	87.61306	408.85248	87.61306
13700.00000	86.47901	404.26972	86.47901
13750.00000	85.72760	397.06855	85.72760
13800.00000	85.71068	389.26317	85.71068
13850.00000	85.74032	382.08080	85.74032
13900.00000	86.08457	372.71250	86.08457
13950.00000	87.23231	366.76571	87.23231
14000.00000	88.60290	363.75880	88.60290
14050.00000	90.60372	364.56844	90.60372
14100.00000	92.77358	368.28170	92.77358
14150.00000	94.14409	381.32617	94.14409
14200.00000	94.26887	397.15873	94.26887
14250.00000	93.25140	409.24320	93.25140
14300.00000	91.81822	414.33657	91.81822
14350.00000	90.74573	412.60705	90.74573
14400.00000	90.01475	410.94023	90.01475
14450.00000	89.67476	405.26725	89.67476
14500.00000	89.56773	400.72763	89.56773
14550.00000	89.79623	394.77140	89.79623
14600.00000	90.22129	389.41100	90.22129
14650.00000	90.88917	384.06221	90.88917
14700.00000	91.77765	378.47931	91.77765
14750.00000	92.81133	374.93169	92.81133
14800.00000	93.97363	372.32319	93.97363
14850.00000	95.27014	371.75937	95.27014
14900.00000	96.47063	372.54890	96.47063
14950.00000	97.12851	375.49672	97.12851
15000.00000	97.45380	379.02430	97.45380
15050.00000	97.48952	381.60015	97.48952
15100.00000	97.30688	381.58865	97.30688
15150.00000	97.06715	379.30804	97.06715
15200.00000	96.93398	375.78089	96.93398
15250.00000	96.72305	371.05445	96.72305
15300.00000	96.75913	365.64883	96.75913
15350.00000	97.05445	360.44621	97.05445
15400.00000	97.37937	355.06930	97.37937
15450.00000	97.77715	348.78695	97.77715
15500.00000	98.33009	344.09346	98.33009
15550.00000	98.87127	340.57786	98.87127
15600.00000	99.36881	337.17706	99.36881
15650.00000	99.83597	335.61375	99.83597
15700.00000	99.96578	334.36922	99.96578
15750.00000	100.21570	333.86437	100.21570
15800.00000	100.18791	332.49516	100.18791
15850.00000	100.16907	331.39921	100.16907
15900.00000	99.92166	328.65174	99.92166
15950.00000	99.80500	325.60963	99.80500
16000.00000	99.73470	321.90981	99.73470
16050.00000	99.69894	318.50584	99.69894
16100.00000	99.69966	314.81547	99.69966
16150.00000	99.89194	311.09405	99.89194
16200.00000	100.11149	308.34329	100.11149
16250.00000	100.34491	304.99638	100.34491
16300.00000	100.61939	303.02430	100.61939
16350.00000	100.93838	300.81045	100.93838
16400.00000	101.11188	298.79053	101.11188
16450.00000	101.30645	297.61057	101.30645
16500.00000	101.43038	295.70820	101.43038
16550.00000	101.43274	293.76762	101.43274
16600.00000	101.48757	291.24046	101.48757
16650.00000	101.49237	288.45234	101.49237
16700.00000	101.58618	285.67255	101.58618
16750.00000	101.65093	282.69256	101.65093
16800.00000	101.77876	279.76375	101.77876
16850.00000	101.92141	276.73409	101.92141
16900.00000	102.12822	274.19487	102.12822
16950.00000	102.28452	271.36173	102.28452
17000.00000	102.46132	268.92839	102.46132
17050.00000	102.64561	266.85739	102.64561
17100.00000	102.80182	264.57514	102.80182
17150.00000	102.90296	262.31083	102.90296
17200.00000	102.97334	259.54467	102.97334
17250.00000	103.09556	256.90044	103.09556
17300.00000	103.18171	253.76142	103.18171
17350.00000	103.29908	250.70887	103.29908
17400.00000	103.40429	247.56479	103.40429
17450.00000	103.53533	244.37053	103.53533
17500.00000	103.64141	241.02393	103.64141
17550.00000	103.75592	237.91470	103.75592
17600.00000	103.93260	235.19718	103.93260
17650.00000	104.05161	232.27223	104.05161
17700.00000	104.21313	229.48157	104.21313
17750.00000	104.31181	226.48994	104.31181
17800.00000	104.39900	223.39345	104.39900
17850.00000	104.47391	220.47728	104.47391
17900.00000	104.56078	217.51224	104.56078
17950.00000	104.60375	214.31506	104.60375
18000.00000	104.69021	210.96207	104.69021
18050.00000	104.74329	207.67342	104.74329
18100.00000	104.79714	204.37083	104.79714
18150.00000	104.85942	200.95487	104.85942
18200.00000	104.91877	197.52815	104.91877
18250.00000	104.94976	194.13846	104.94976
18300.00000	104.97359	190.72364	104.97359
18350.00000	104.98606	187.36332	104.98606
18400.00000	105.00402	183.82084	105.00402
18450.00000	105.02277	180.60381	105.02277
18500.00000	105.02123	177.41971	105.02123
18550.00000	105.01018	173.67549	105.01018
18600.00000	104.98944	170.50664	104.98944
18650.00000	104.98074	167.15055	104.98074
18700.00000	104.92811	163.78460	104.92811
18750.00000	104.85033	160.58655	104.85033
18800.00000	104.78654	157.23401	104.78654
18850.00000	104.72729	154.09032	104.72729
18900.00000	104.58357	151.01504	104.58357
18950.00000	104.51093	147.71226	104.51093
19000.00000	104.37067	144.54918	104.37067
19050.00000	104.28270	141.60079	104.28270
19100.00000	104.18013	138.58006	104.18013
19150.00000	104.06167	136.04081	104.06167
19200.00000	103.96311	133.21406	103.96311
19250.00000	103.81184	130.68233	103.81184
19300.00000	103.73153	128.11013	103.73153
19350.00000	103.62740	125.35116	103.62740
19400.00000	103.49870	123.08165	103.49870
19450.00000	103.39584	120.48728	103.39584
19500.00000	103.31760	118.24678	103.31760
19550.00000	103.23872	115.87204	103.23872
19600.00000	103.14459	113.50897	103.14459
19650.00000	103.08245	111.21072	103.08245
19700.00000	103.01600	108.87718	103.01600
19750.00000	102.93503	106.72612	102.93503
19800.00000	102.88958	104.59194	102.88958
19850.00000	102.82233	102.26995	102.82233
19900.00000	102.80329	99.93712	102.80329
19950.00000	102.75562	97.70803	102.75562
20000.00000	102.70406	94.99995	102.70406
20050.00000	102.66967	92.82966	102.66967
20100.00000	102.63444	90.57507	102.63444
20150.00000	102.60409	87.85782	102.60409
20200.00000	102.58244	85.68788	102.58244
20250.00000	102.53224	83.41794	102.53224
20300.00000	102.51823	80.97481	102.51823
20350.00000	102.47829	78.63339	102.47829
20400.00000	102.46605	76.27456	102.46605
20450.00000	102.44400	73.58022	102.44400
20500.00000	102.41085	70.80982	102.41085
20550.00000	102.37874	68.26966	102.37874
20600.00000	102.35032	65.80967	102.35032
20650.00000	102.35700	63.23200	102.35700
20700.00000	102.29515	60.78631	102.29515
20750.00000	102.24721	58.05860	102.24721
20800.00000	102.18205	55.57234	102.18205
20850.00000	102.14256	52.70221	102.14256
20900.00000	102.08265	50.16560	102.08265
20950.00000	102.02753	47.17603	102.02753
21000.00000	102.01299	44.40794	102.01299
21050.00000	101.94414	41.81154	101.94414
21100.00000	101.86687	39.04319	101.86687
21150.00000	101.81590	36.44533	101.81590
21200.00000	101.72854	33.98351	101.72854
21250.00000	101.62249	31.14401	101.62249
21300.00000	101.52726	28.13210	101.52726
21350.00000	101.40442	25.37686	101.40442
21400.00000	101.32779	22.51553	101.32779
21450.00000	101.24080	19.87633	101.24080
21500.00000	101.14587	17.21590	101.14587
21550.00000	101.07021	14.53032	101.07021
21600.00000	100.94648	11.80622	100.94648
21650.00000	100.76596	 9.30010	100.76596
21700.00000	100.66471	 6.18172	100.66471
21750.00000	100.49716	 3.65663	100.49716
21800.00000	100.33822	 0.93277	100.33822
21850.00000	100.18652	-1.78598	100.18652
21900.00000	100.01809	-4.50683	100.01809
21950.00000	99.83362	-6.96855	99.83362
22000.00000	99.56597	-9.30143	99.56597
22050.00000	99.35248	-11.10031	99.35248
22100.00000	99.21104	-13.13825	99.21104
22150.00000	99.01137	-15.46297	99.01137
22200.00000	98.85936	-17.59399	98.85936
22250.00000	98.65014	-19.43592	98.65014
22300.00000	98.54554	-21.35304	98.54554
22350.00000	98.33328	-23.42606	98.33328
22400.00000	98.16608	-25.65906	98.16608
22450.00000	98.10202	-28.09637	98.10202
22500.00000	97.87280	-29.74577	97.87280
22550.00000	97.65252	-31.50678	97.65252
22600.00000	97.44300	-32.81011	97.44300
22650.00000	97.35022	-34.28079	97.35022
22700.00000	97.16891	-36.10761	97.16891
22750.00000	96.95428	-38.11319	96.95428
22800.00000	96.80422	-39.14501	96.80422
22850.00000	96.66954	-40.93199	96.66954
22900.00000	96.63128	-42.44864	96.63128
22950.00000	96.55011	-43.73141	96.55011
23000.00000	96.42441	-45.15518	96.42441
23050.00000	96.27674	-46.64766	96.27674
23100.00000	96.13481	-48.01918	96.13481
23150.00000	96.05655	-49.93083	96.05655
23200.00000	95.95647	-51.52386	95.95647
23250.00000	95.90393	-52.82996	95.90393
23300.00000	95.96597	-55.41273	95.96597
23350.00000	95.82949	-56.45531	95.82949
23400.00000	95.78649	-57.85107	95.78649
