---ACOUSTIC CALIBRATION---
Filename: C:\Data\CL0809 DATA\CL0809200\RightPrimary.calib
Date: 8/9/2019 10:17:18 AM
Format: 4
Probe Tube Correction File: C:\Data\Probe Tube Calibrations\74_ProbeTube.calib
Experiment VIs: 2128
EPL_CFTS.exe V15.0.1f5 (2015)
DAQmx V15.1

Attenuation (dB): 40.000000
Min Freq (Hz): 50.000000
Max Freq (Hz): 99950.000000
Freq Step (Hz): 50.000000
Sample Rate (Hz): 200000.000000
[Smoothing]
Method=None
MA.Iterations=0
MA.Length=0
Loess.Length=0
Loess.Type=Linear
Loess.Robust=FALSE


Freq(Hz)	Mag(dB)	Phase(deg)	Unsmoothed(dB)

50.00000	80.19216	195.59787	80.19216
100.00000	57.96386	10.25051	57.96386
150.00000	54.54657	175.38888	54.54657
200.00000	59.29674	415.01354	59.29674
250.00000	54.47623	636.76703	54.47623
300.00000	62.28288	798.03141	62.28288
350.00000	61.49121	1009.86288	61.49121
400.00000	58.22610	1068.12656	58.22610
450.00000	61.35190	1108.72742	61.35190
500.00000	63.73243	1215.54464	63.73243
550.00000	70.53850	1154.33263	70.53850
600.00000	68.27804	1128.14314	68.27804
650.00000	75.56240	1120.22557	75.56240
700.00000	75.03765	1122.61836	75.03765
750.00000	78.97328	1091.36287	78.97328
800.00000	78.95957	1076.47851	78.95957
850.00000	77.60798	1074.95041	77.60798
900.00000	78.05660	1084.66501	78.05660
950.00000	80.90343	1081.45016	80.90343
1000.00000	83.12466	1085.07717	83.12466
1050.00000	86.26143	1078.26845	86.26143
1100.00000	88.86486	1064.61158	88.86486
1150.00000	90.65435	1049.15161	90.65435
1200.00000	91.45298	1035.54708	91.45298
1250.00000	91.71542	1024.76917	91.71542
1300.00000	92.53609	1019.43595	92.53609
1350.00000	93.98907	1010.75054	93.98907
1400.00000	95.02809	998.52841	95.02809
1450.00000	95.28339	985.87043	95.28339
1500.00000	95.36179	976.43439	95.36179
1550.00000	95.41149	969.07544	95.41149
1600.00000	95.96049	965.24586	95.96049
1650.00000	96.63750	961.91117	96.63750
1700.00000	100.51059	945.94577	100.51059
1750.00000	97.48909	925.32231	97.48909
1800.00000	97.03761	919.56249	97.03761
1850.00000	96.58784	912.61867	96.58784
1900.00000	96.39891	906.85281	96.39891
1950.00000	95.80629	902.32964	95.80629
2000.00000	95.38131	899.92468	95.38131
2050.00000	95.68280	899.19341	95.68280
2100.00000	96.40726	894.35894	96.40726
2150.00000	96.90491	885.73806	96.90491
2200.00000	96.64693	874.47396	96.64693
2250.00000	95.64170	867.96279	95.64170
2300.00000	95.21927	867.25405	95.21927
2350.00000	95.42435	862.02961	95.42435
2400.00000	95.47085	856.21801	95.47085
2450.00000	95.03702	848.00078	95.03702
2500.00000	94.24958	844.62191	94.24958
2550.00000	93.97359	840.80926	93.97359
2600.00000	93.58557	835.98401	93.58557
2650.00000	93.09025	832.76115	93.09025
2700.00000	92.66402	829.12114	92.66402
2750.00000	92.11428	826.31516	92.11428
2800.00000	91.58871	823.19294	91.58871
2850.00000	91.12324	820.81858	91.12324
2900.00000	90.72929	820.03403	90.72929
2950.00000	90.39629	819.05854	90.39629
3000.00000	90.10962	817.98164	90.10962
3050.00000	89.98690	816.36875	89.98690
3100.00000	89.82768	813.81116	89.82768
3150.00000	89.44219	811.29494	89.44219
3200.00000	89.10675	808.28966	89.10675
3250.00000	88.77938	806.72596	88.77938
3300.00000	88.20722	804.23035	88.20722
3350.00000	87.80076	803.99646	87.80076
3400.00000	87.44413	803.00772	87.44413
3450.00000	86.92372	802.57722	86.92372
3500.00000	86.48332	801.98670	86.48332
3550.00000	86.29355	799.64045	86.29355
3600.00000	85.46541	796.08777	85.46541
3650.00000	84.30572	796.36603	84.30572
3700.00000	82.91399	797.25816	82.91399
3750.00000	81.62289	800.63217	81.62289
3800.00000	80.49361	808.00249	80.49361
3850.00000	79.69555	814.70993	79.69555
3900.00000	79.30731	825.66699	79.30731
3950.00000	78.52001	838.14849	78.52001
4000.00000	78.49298	855.45696	78.49298
4050.00000	80.53637	873.00515	80.53637
4100.00000	82.75750	880.77733	82.75750
4150.00000	85.48088	882.91527	85.48088
4200.00000	87.39644	883.30823	87.39644
4250.00000	88.22680	875.41870	88.22680
4300.00000	88.98502	878.27945	88.98502
4350.00000	90.53654	880.49037	90.53654
4400.00000	92.21117	876.54751	92.21117
4450.00000	93.21215	870.86470	93.21215
4500.00000	94.15373	866.50649	94.15373
4550.00000	94.80336	862.62065	94.80336
4600.00000	95.47536	858.39637	95.47536
4650.00000	96.04381	855.77468	96.04381
4700.00000	96.67501	854.35765	96.67501
4750.00000	97.51586	852.80920	97.51586
4800.00000	98.47538	850.72923	98.47538
4850.00000	99.47142	847.80596	99.47142
4900.00000	100.53349	843.78652	100.53349
4950.00000	101.60678	839.66311	101.60678
5000.00000	102.72470	834.77367	102.72470
5050.00000	103.96135	829.33594	103.96135
5100.00000	105.38595	822.91790	105.38595
5150.00000	107.13256	814.51534	107.13256
5200.00000	109.39515	801.29516	109.39515
5250.00000	112.01196	774.58424	112.01196
5300.00000	111.34089	726.19414	111.34089
5350.00000	105.47101	697.21581	105.47101
5400.00000	99.53950	698.64980	99.53950
5450.00000	96.60312	717.11554	96.60312
5500.00000	95.81173	724.99918	95.81173
5550.00000	93.64620	732.59200	93.64620
5600.00000	92.59805	755.44415	92.59805
5650.00000	94.40923	773.32704	94.40923
5700.00000	96.60815	778.09023	96.60815
5750.00000	98.32245	776.69807	98.32245
5800.00000	99.49431	772.87521	99.49431
5850.00000	100.15894	768.15920	100.15894
5900.00000	100.47935	764.23247	100.47935
5950.00000	100.65965	762.29361	100.65965
6000.00000	100.93733	761.83030	100.93733
6050.00000	101.37912	761.76794	101.37912
6100.00000	101.97311	761.54099	101.97311
6150.00000	102.65773	760.89248	102.65773
6200.00000	103.44184	759.99204	103.44184
6250.00000	104.30281	758.32879	104.30281
6300.00000	105.22863	755.97406	105.22863
6350.00000	106.20296	752.83619	106.20296
6400.00000	107.19593	748.82963	107.19593
6450.00000	108.16330	743.81873	108.16330
6500.00000	109.08874	738.14893	109.08874
6550.00000	109.99396	731.75497	109.99396
6600.00000	110.85904	724.71483	110.85904
6650.00000	111.69582	716.79339	111.69582
6700.00000	112.46133	707.64444	112.46133
6750.00000	113.06909	697.40079	113.06909
6800.00000	113.43778	686.34479	113.43778
6850.00000	113.52805	675.13380	113.52805
6900.00000	113.36243	664.41531	113.36243
6950.00000	113.01226	654.70951	113.01226
7000.00000	112.55835	646.04465	112.55835
7050.00000	112.05264	638.47227	112.05264
7100.00000	111.52619	631.72880	111.52619
7150.00000	111.00875	625.81010	111.00875
7200.00000	110.51882	620.61781	110.51882
7250.00000	110.09955	615.89074	110.09955
7300.00000	109.74700	611.33261	109.74700
7350.00000	109.42395	606.47084	109.42395
7400.00000	109.08721	601.75059	109.08721
7450.00000	108.74424	596.92989	108.74424
7500.00000	108.35733	592.22849	108.35733
7550.00000	107.94867	587.52419	107.94867
7600.00000	107.49713	583.27215	107.49713
7650.00000	107.05189	579.10535	107.05189
7700.00000	106.59236	575.39681	106.59236
7750.00000	106.11673	571.98450	106.11673
7800.00000	105.66640	568.88248	105.66640
7850.00000	105.23733	565.92138	105.23733
7900.00000	104.81333	563.18338	104.81333
7950.00000	104.41161	560.71876	104.41161
8000.00000	104.02434	558.53762	104.02434
8050.00000	103.63675	556.37340	103.63675
8100.00000	103.29815	554.52337	103.29815
8150.00000	102.99338	552.61409	102.99338
8200.00000	102.70764	550.90409	102.70764
8250.00000	102.43834	549.15503	102.43834
8300.00000	102.19537	547.51286	102.19537
8350.00000	101.95565	545.78373	101.95565
8400.00000	101.73767	544.45121	101.73767
8450.00000	101.52877	542.90713	101.52877
8500.00000	101.39134	541.69242	101.39134
8550.00000	101.24503	540.20194	101.24503
8600.00000	101.13738	538.87169	101.13738
8650.00000	101.06683	537.49135	101.06683
8700.00000	100.96111	535.95341	100.96111
8750.00000	100.93266	534.40718	100.93266
8800.00000	100.92472	532.90579	100.92472
8850.00000	100.90281	530.96755	100.90281
8900.00000	100.87811	529.35530	100.87811
8950.00000	100.89527	527.46009	100.89527
9000.00000	100.85588	525.70913	100.85588
9050.00000	100.93913	523.99183	100.93913
9100.00000	101.00476	521.83286	101.00476
9150.00000	101.08246	519.29262	101.08246
9200.00000	101.11881	516.91787	101.11881
9250.00000	101.18698	514.88352	101.18698
9300.00000	101.27803	511.94797	101.27803
9350.00000	101.34567	509.20453	101.34567
9400.00000	101.39443	506.23611	101.39443
9450.00000	101.45474	503.29453	101.45474
9500.00000	101.48369	500.16774	101.48369
9550.00000	101.51120	497.07188	101.51120
9600.00000	101.56213	494.00500	101.56213
9650.00000	101.61092	490.66055	101.61092
9700.00000	101.58266	486.88961	101.58266
9750.00000	101.52611	483.33648	101.52611
9800.00000	101.38525	479.89184	101.38525
9850.00000	101.21850	476.35287	101.21850
9900.00000	100.98970	473.78899	100.98970
9950.00000	100.65247	471.83721	100.65247
10000.00000	100.51083	472.60169	100.51083
10050.00000	100.92855	473.33506	100.92855
10100.00000	101.59131	470.09137	101.59131
10150.00000	101.87048	464.67955	101.87048
10200.00000	101.95756	459.63094	101.95756
10250.00000	101.95956	455.30840	101.95956
10300.00000	101.95513	451.12483	101.95513
10350.00000	101.91349	446.93740	101.91349
10400.00000	101.83449	442.81882	101.83449
10450.00000	101.80674	438.64923	101.80674
10500.00000	101.78279	434.38158	101.78279
10550.00000	101.75384	430.38307	101.75384
10600.00000	101.78333	425.74193	101.78333
10650.00000	101.72670	421.23239	101.72670
10700.00000	101.66388	416.37820	101.66388
10750.00000	101.59012	411.94995	101.59012
10800.00000	101.51862	406.65930	101.51862
10850.00000	101.37846	401.65083	101.37846
10900.00000	101.23316	396.66550	101.23316
10950.00000	101.06132	391.51629	101.06132
11000.00000	100.91460	386.24247	100.91460
11050.00000	100.57844	381.14924	100.57844
11100.00000	100.34367	376.05379	100.34367
11150.00000	100.03791	370.90183	100.03791
11200.00000	99.68370	365.62780	99.68370
11250.00000	99.23634	360.33629	99.23634
11300.00000	98.78647	355.44213	98.78647
11350.00000	98.32636	350.41551	98.32636
11400.00000	97.78939	345.47925	97.78939
11450.00000	97.26302	340.81474	97.26302
11500.00000	96.69555	336.15696	96.69555
11550.00000	96.10406	331.72267	96.10406
11600.00000	95.51047	327.50004	95.51047
11650.00000	94.88627	323.53403	94.88627
11700.00000	94.28231	319.66943	94.28231
11750.00000	93.64809	315.86419	93.64809
11800.00000	93.04231	312.75492	93.04231
11850.00000	92.45584	309.59263	92.45584
11900.00000	91.85284	307.27128	91.85284
11950.00000	91.33671	304.31111	91.33671
12000.00000	90.82484	301.91982	90.82484
12050.00000	90.28123	299.61142	90.28123
12100.00000	89.67843	296.78611	89.67843
12150.00000	89.05058	294.18860	89.05058
12200.00000	88.52017	292.02902	88.52017
12250.00000	87.88710	290.02341	87.88710
12300.00000	87.28714	287.43211	87.28714
12350.00000	86.68719	285.14038	86.68719
12400.00000	86.02122	282.47478	86.02122
12450.00000	85.70069	279.81350	85.70069
12500.00000	85.16815	277.04515	85.16815
12550.00000	84.46216	274.14838	84.46216
12600.00000	84.05054	271.60180	84.05054
12650.00000	83.53869	270.08257	83.53869
12700.00000	83.08311	266.83694	83.08311
12750.00000	82.66952	263.99152	82.66952
12800.00000	82.47062	260.73212	82.47062
12850.00000	82.03665	258.87491	82.03665
12900.00000	81.63597	253.90065	81.63597
12950.00000	81.34675	248.78993	81.34675
13000.00000	81.05577	244.49114	81.05577
13050.00000	80.98829	239.05680	80.98829
13100.00000	80.80926	233.98972	80.80926
13150.00000	81.11073	228.87052	81.11073
13200.00000	81.34252	219.72043	81.34252
13250.00000	82.17705	212.62055	82.17705
13300.00000	82.94122	208.82197	82.94122
13350.00000	84.14897	202.70604	84.14897
13400.00000	85.66900	202.04189	85.66900
13450.00000	86.69812	207.66013	86.69812
13500.00000	86.73957	218.25564	86.73957
13550.00000	86.08754	222.13372	86.08754
13600.00000	85.18823	221.19186	85.18823
13650.00000	84.07099	214.49368	84.07099
13700.00000	83.52732	206.60326	83.52732
13750.00000	83.19833	194.63965	83.19833
13800.00000	83.66167	182.23666	83.66167
13850.00000	84.31691	170.44865	84.31691
13900.00000	85.23737	156.80168	85.23737
13950.00000	86.65048	147.01885	86.65048
14000.00000	88.58217	137.94323	88.58217
14050.00000	90.97857	133.39185	90.97857
14100.00000	93.54428	132.68245	93.54428
14150.00000	95.36395	141.23820	95.36395
14200.00000	95.94759	151.68538	95.94759
14250.00000	95.20280	159.51010	95.20280
14300.00000	94.08022	159.32839	94.08022
14350.00000	93.29752	153.67840	93.29752
14400.00000	92.81999	147.29611	92.81999
14450.00000	92.59820	139.62750	92.59820
14500.00000	92.63563	130.04592	92.63563
14550.00000	93.09383	120.46470	93.09383
14600.00000	93.63717	112.66413	93.63717
14650.00000	94.39670	104.02306	94.39670
14700.00000	95.41257	95.29346	95.41257
14750.00000	96.53529	87.82353	96.53529
14800.00000	97.68868	82.48291	97.68868
14850.00000	98.96844	78.67187	98.96844
14900.00000	100.15260	77.11367	100.15260
14950.00000	101.00489	77.54508	101.00489
15000.00000	101.40579	77.55178	101.40579
15050.00000	101.41985	78.03941	101.41985
15100.00000	101.33674	75.47280	101.33674
15150.00000	101.10137	71.05774	101.10137
15200.00000	100.92517	65.64315	100.92517
15250.00000	100.72159	59.11968	100.72159
15300.00000	100.69319	52.10809	100.69319
15350.00000	100.96256	44.52715	100.96256
15400.00000	101.18629	36.91312	101.18629
15450.00000	101.54853	29.46645	101.54853
15500.00000	102.02251	23.22246	102.02251
15550.00000	102.46571	18.11804	102.46571
15600.00000	103.00528	13.89791	103.00528
15650.00000	103.45403	10.52258	103.45403
15700.00000	103.65703	 8.14817	103.65703
15750.00000	103.85542	 6.22025	103.85542
15800.00000	103.80453	 4.14710	103.80453
15850.00000	103.77250	 1.67703	103.77250
15900.00000	103.54891	-2.22403	103.54891
15950.00000	103.40299	-6.02943	103.40299
16000.00000	103.31099	-10.66062	103.31099
16050.00000	103.35050	-15.47995	103.35050
16100.00000	103.34442	-20.40197	103.34442
16150.00000	103.52922	-25.44317	103.52922
16200.00000	103.71465	-29.61233	103.71465
16250.00000	103.91865	-33.98983	103.91865
16300.00000	104.14896	-37.72779	104.14896
16350.00000	104.37678	-40.71606	104.37678
16400.00000	104.53464	-43.41498	104.53464
16450.00000	104.69796	-46.25207	104.69796
16500.00000	104.72072	-48.94791	104.72072
16550.00000	104.70954	-51.89033	104.70954
16600.00000	104.75161	-55.26064	104.75161
16650.00000	104.68408	-58.81116	104.68408
16700.00000	104.74839	-62.54496	104.74839
16750.00000	104.73069	-66.76201	104.73069
16800.00000	104.79353	-70.55150	104.79353
16850.00000	104.90449	-74.50913	104.90449
16900.00000	105.04756	-78.09345	105.04756
16950.00000	105.11325	-81.56041	105.11325
17000.00000	105.23131	-84.92940	105.23131
17050.00000	105.31111	-87.89182	105.31111
17100.00000	105.38583	-90.95256	105.38583
17150.00000	105.42657	-93.91998	105.42657
17200.00000	105.39826	-96.90439	105.39826
17250.00000	105.44987	-100.45123	105.44987
17300.00000	105.44888	-104.05844	105.44888
17350.00000	105.48683	-107.64012	105.48683
17400.00000	105.52618	-111.22756	105.52618
17450.00000	105.57718	-115.03848	105.57718
17500.00000	105.58485	-118.66752	105.58485
17550.00000	105.65148	-122.25723	105.65148
17600.00000	105.73635	-125.60080	105.73635
17650.00000	105.79044	-128.94279	105.79044
17700.00000	105.86555	-132.25025	105.86555
17750.00000	105.88883	-135.56818	105.88883
17800.00000	105.90264	-138.91646	105.90264
17850.00000	105.91735	-142.28697	105.91735
17900.00000	105.94705	-145.71690	105.94705
17950.00000	105.92497	-149.35733	105.92497
18000.00000	105.92325	-152.76881	105.92325
18050.00000	105.88381	-156.45047	105.88381
18100.00000	105.88938	-160.05705	105.88938
18150.00000	105.86384	-163.80678	105.86384
18200.00000	105.83395	-167.39835	105.83395
18250.00000	105.79607	-171.14625	105.79607
18300.00000	105.75817	-174.77672	105.75817
18350.00000	105.69791	-178.35909	105.69791
18400.00000	105.64153	-182.07648	105.64153
18450.00000	105.57483	-185.58136	105.57483
18500.00000	105.50462	-188.71370	105.50462
18550.00000	105.41684	-192.51771	105.41684
18600.00000	105.28934	-195.82969	105.28934
18650.00000	105.24117	-199.39966	105.24117
18700.00000	105.12692	-202.56373	105.12692
18750.00000	104.99946	-205.86606	104.99946
18800.00000	104.87219	-209.12510	104.87219
18850.00000	104.76761	-212.31066	104.76761
18900.00000	104.57945	-215.25925	104.57945
18950.00000	104.46747	-218.58924	104.46747
19000.00000	104.27958	-221.57951	104.27958
19050.00000	104.12532	-224.61982	104.12532
19100.00000	104.01565	-227.50870	104.01565
19150.00000	103.86047	-230.21545	103.86047
19200.00000	103.73241	-233.08658	103.73241
19250.00000	103.57416	-235.50363	103.57416
19300.00000	103.44970	-238.23548	103.44970
19350.00000	103.32543	-240.89684	103.32543
19400.00000	103.16542	-243.37409	103.16542
19450.00000	103.06156	-246.15129	103.06156
19500.00000	102.93677	-248.51405	102.93677
19550.00000	102.83748	-251.00339	102.83748
19600.00000	102.68244	-253.47542	102.68244
19650.00000	102.57918	-255.82632	102.57918
19700.00000	102.48212	-258.33409	102.48212
19750.00000	102.39143	-260.50957	102.39143
19800.00000	102.28709	-262.82737	102.28709
19850.00000	102.18338	-265.29823	102.18338
19900.00000	102.12226	-267.64053	102.12226
19950.00000	102.00542	-269.87050	102.00542
20000.00000	101.90007	-272.55285	101.90007
20050.00000	101.83437	-274.70883	101.83437
20100.00000	101.75089	-277.16530	101.75089
20150.00000	101.66694	-279.68333	101.66694
20200.00000	101.62845	-281.87669	101.62845
20250.00000	101.54157	-283.91856	101.54157
20300.00000	101.46247	-286.48945	101.46247
20350.00000	101.41861	-288.70104	101.41861
20400.00000	101.31591	-290.72129	101.31591
20450.00000	101.26263	-293.30338	101.26263
20500.00000	101.19445	-295.68289	101.19445
20550.00000	101.11972	-298.11687	101.11972
20600.00000	101.07736	-300.52421	101.07736
20650.00000	101.03671	-302.99495	101.03671
20700.00000	101.02222	-305.14943	101.02222
20750.00000	100.91797	-307.52082	100.91797
20800.00000	100.85696	-309.88754	100.85696
20850.00000	100.84192	-312.45020	100.84192
20900.00000	100.77253	-314.91577	100.77253
20950.00000	100.71765	-317.37576	100.71765
21000.00000	100.72847	-320.22102	100.72847
21050.00000	100.66304	-322.79780	100.66304
21100.00000	100.64934	-325.14369	100.64934
21150.00000	100.63019	-327.47934	100.63019
21200.00000	100.56703	-330.06394	100.56703
21250.00000	100.48399	-332.82801	100.48399
21300.00000	100.44590	-335.63173	100.44590
21350.00000	100.37244	-338.24172	100.37244
21400.00000	100.29883	-341.29952	100.29883
21450.00000	100.27878	-344.00340	100.27878
21500.00000	100.22093	-346.49349	100.22093
21550.00000	100.18487	-349.42134	100.18487
21600.00000	100.13823	-352.19229	100.13823
21650.00000	100.04056	-355.25246	100.04056
21700.00000	99.91950	-358.49616	99.91950
21750.00000	99.87802	-361.50013	99.87802
21800.00000	99.75976	-364.95646	99.75976
21850.00000	99.66417	-367.71421	99.66417
21900.00000	99.52231	-370.82151	99.52231
21950.00000	99.37243	-374.20415	99.37243
22000.00000	99.15176	-377.28234	99.15176
22050.00000	98.98973	-380.03001	98.98973
22100.00000	98.80270	-382.38889	98.80270
22150.00000	98.57091	-385.63457	98.57091
22200.00000	98.36405	-388.05141	98.36405
22250.00000	98.25684	-390.87971	98.25684
22300.00000	97.98150	-393.66130	97.98150
22350.00000	97.75965	-396.73248	97.75965
22400.00000	97.54377	-399.58306	97.54377
22450.00000	97.30446	-402.05441	97.30446
22500.00000	97.04302	-404.29820	97.04302
22550.00000	96.72116	-407.10410	96.72116
22600.00000	96.46857	-409.17730	96.46857
22650.00000	96.23828	-410.94539	96.23828
22700.00000	95.95865	-412.82602	95.95865
22750.00000	95.67295	-415.38507	95.67295
22800.00000	95.42023	-416.48571	95.42023
22850.00000	95.16602	-418.70879	95.16602
22900.00000	94.96149	-419.47984	94.96149
22950.00000	94.75776	-421.02457	94.75776
23000.00000	94.48211	-423.24601	94.48211
23050.00000	94.30153	-424.91193	94.30153
23100.00000	94.21913	-426.16841	94.21913
23150.00000	93.92981	-426.89716	93.92981
