---ACOUSTIC CALIBRATION---
Filename: C:\Data\AZH DATA\AZH52\RightPrimary.calib
Date: 8/27/2019 11:39:45 AM
Format: 4
Probe Tube Correction File: C:\Data\Probe Tube Calibrations\50_ProbeTube.calib
Experiment VIs: 850
EPL_CFTS.exe V12.0.1 (2012)
DAQmx V9.6

Attenuation (dB): 40.000000
Min Freq (Hz): 50.000000
Max Freq (Hz): 49950.000000
Freq Step (Hz): 50.000000
Sample Rate (Hz): 100000.000000
[Smoothing]
Method=None
MA.Iterations=0
MA.Length=0
Loess.Length=0
Loess.Type=Linear
Loess.Robust=FALSE


Freq(Hz)	Mag(dB)	Phase(deg)	Unsmoothed(dB)

50.00000	104.93625	411.56267	104.93625
100.00000	72.43519	476.96346	72.43519
150.00000	85.00584	493.49746	85.00584
200.00000	81.40107	477.90474	81.40107
250.00000	92.70366	439.13331	92.70366
300.00000	96.07761	402.06215	96.07761
350.00000	87.70570	400.19786	87.70570
400.00000	88.79859	383.75631	88.79859
450.00000	89.89228	372.66469	89.89228
500.00000	94.13683	364.79138	94.13683
550.00000	95.04071	371.27081	95.04071
600.00000	97.77601	365.34296	97.77601
650.00000	100.26445	348.02939	100.26445
700.00000	102.50240	332.49059	102.50240
750.00000	104.29267	316.11184	104.29267
800.00000	105.06620	289.61931	105.06620
850.00000	104.23933	274.49428	104.23933
900.00000	102.29482	256.65636	102.29482
950.00000	100.68907	255.98873	100.68907
1000.00000	99.28344	256.39660	99.28344
1050.00000	97.23895	272.15250	97.23895
1100.00000	99.11443	293.95659	99.11443
1150.00000	101.84423	299.09323	101.84423
1200.00000	104.69514	297.79455	104.69514
1250.00000	106.32155	290.54044	106.32155
1300.00000	108.07630	284.61060	108.07630
1350.00000	109.30092	275.12782	109.30092
1400.00000	110.33644	268.52424	110.33644
1450.00000	111.31512	260.90316	111.31512
1500.00000	112.71908	255.61510	112.71908
1550.00000	113.21492	244.57420	113.21492
1600.00000	114.53589	235.02250	114.53589
1650.00000	115.59132	217.95554	115.59132
1700.00000	114.29820	208.33560	114.29820
1750.00000	114.12601	202.46307	114.12601
1800.00000	113.85450	197.75989	113.85450
1850.00000	114.06142	197.03724	114.06142
1900.00000	115.23261	191.78996	115.23261
1950.00000	115.84260	178.04416	115.84260
2000.00000	114.80059	165.94807	114.80059
2050.00000	113.46210	171.23395	113.46210
2100.00000	115.46241	171.31324	115.46241
2150.00000	115.96950	158.55166	115.96950
2200.00000	115.85093	148.47342	115.85093
2250.00000	115.19246	141.25737	115.19246
2300.00000	115.23829	135.84820	115.23829
2350.00000	114.93220	129.24830	114.93220
2400.00000	114.62135	123.92912	114.62135
2450.00000	114.28385	117.41318	114.28385
2500.00000	113.85556	112.79666	113.85556
2550.00000	113.37319	107.25411	113.37319
2600.00000	112.78318	103.24969	112.78318
2650.00000	112.30387	99.63245	112.30387
2700.00000	111.64065	96.39250	111.64065
2750.00000	111.07114	92.68048	111.07114
2800.00000	110.36799	90.34147	110.36799
2850.00000	109.68257	88.83216	109.68257
2900.00000	108.94023	87.71925	108.94023
2950.00000	108.09050	88.04352	108.09050
3000.00000	107.22662	89.07664	107.22662
3050.00000	106.22920	92.01497	106.22920
3100.00000	105.50902	97.41262	105.50902
3150.00000	104.85407	105.32218	104.85407
3200.00000	104.69934	117.33687	104.69934
3250.00000	105.35797	128.28786	105.35797
3300.00000	106.47525	136.82878	106.47525
3350.00000	108.01402	144.87716	108.01402
3400.00000	110.02355	150.49881	110.02355
3450.00000	112.15988	150.92401	112.15988
3500.00000	114.30425	147.67595	114.30425
3550.00000	115.94806	141.88871	115.94806
3600.00000	117.42547	135.92229	117.42547
3650.00000	118.65775	128.68161	118.65775
3700.00000	119.77808	121.51618	119.77808
3750.00000	120.79062	113.45784	120.79062
3800.00000	121.60469	104.92318	121.60469
3850.00000	122.19929	96.74382	122.19929
3900.00000	122.76959	89.46032	122.76959
3950.00000	123.33322	82.10057	123.33322
4000.00000	123.87651	74.63080	123.87651
4050.00000	124.41422	67.19043	124.41422
4100.00000	124.97329	59.45890	124.97329
4150.00000	125.69371	50.90181	125.69371
4200.00000	126.07427	40.92321	126.07427
4250.00000	126.40554	30.45578	126.40554
4300.00000	126.52355	19.59740	126.52355
4350.00000	126.41537	 8.86354	126.41537
4400.00000	126.13753	-0.99258	126.13753
4450.00000	125.77018	-10.18664	125.77018
4500.00000	125.36347	-18.58065	125.36347
4550.00000	124.93468	-26.77462	124.93468
4600.00000	124.44763	-34.58484	124.44763
4650.00000	123.97214	-42.09782	123.97214
4700.00000	123.42922	-49.94965	123.42922
4750.00000	122.72213	-57.87114	122.72213
4800.00000	121.82112	-65.38470	121.82112
4850.00000	120.70053	-71.54008	120.70053
4900.00000	119.47835	-75.70150	119.47835
4950.00000	118.31024	-77.65594	118.31024
5000.00000	117.26344	-78.04092	117.26344
5050.00000	116.37800	-77.92009	116.37800
5100.00000	115.45289	-74.27966	115.45289
5150.00000	115.58423	-70.19464	115.58423
5200.00000	115.31707	-65.82566	115.31707
5250.00000	117.00823	-63.40265	117.00823
5300.00000	117.70513	-74.14922	117.70513
5350.00000	117.26754	-81.52783	117.26754
5400.00000	116.76417	-85.43586	116.76417
5450.00000	116.38072	-88.00190	116.38072
5500.00000	116.10551	-90.35536	116.10551
5550.00000	115.88080	-92.62133	115.88080
5600.00000	115.69502	-94.75777	115.69502
5650.00000	115.53411	-96.92933	115.53411
5700.00000	115.39411	-99.29859	115.39411
5750.00000	115.29082	-101.32888	115.29082
5800.00000	115.18531	-103.43780	115.18531
5850.00000	115.14264	-105.63493	115.14264
5900.00000	115.12375	-107.96647	115.12375
5950.00000	115.14121	-110.45843	115.14121
6000.00000	115.16460	-113.24713	115.16460
6050.00000	115.15180	-116.36784	115.15180
6100.00000	115.12173	-119.64794	115.12173
6150.00000	115.06555	-122.88236	115.06555
6200.00000	114.97276	-126.13171	114.97276
6250.00000	114.87846	-129.33345	114.87846
6300.00000	114.79722	-132.45144	114.79722
6350.00000	114.68566	-135.65842	114.68566
6400.00000	114.58676	-138.72792	114.58676
6450.00000	114.51612	-141.94411	114.51612
6500.00000	114.40245	-145.14670	114.40245
6550.00000	114.29282	-148.26387	114.29282
6600.00000	114.18347	-151.44813	114.18347
6650.00000	114.09200	-154.55011	114.09200
6700.00000	114.00741	-157.92785	114.00741
6750.00000	113.89979	-161.29535	113.89979
6800.00000	113.80429	-164.53514	113.80429
6850.00000	113.70263	-167.92195	113.70263
6900.00000	113.57661	-171.31607	113.57661
6950.00000	113.47159	-174.67675	113.47159
7000.00000	113.35387	-178.28243	113.35387
7050.00000	113.21100	-181.96310	113.21100
7100.00000	113.08876	-185.72980	113.08876
7150.00000	112.92516	-189.35303	112.92516
7200.00000	112.74607	-193.22764	112.74607
7250.00000	112.51949	-197.19180	112.51949
7300.00000	112.31451	-201.04389	112.31451
7350.00000	112.05229	-204.84403	112.05229
7400.00000	111.78274	-208.75071	111.78274
7450.00000	111.48024	-212.68979	111.48024
7500.00000	111.14675	-216.53078	111.14675
7550.00000	110.77806	-220.00781	110.77806
7600.00000	110.36293	-223.58979	110.36293
7650.00000	109.94345	-226.98974	109.94345
7700.00000	109.53216	-230.31905	109.53216
7750.00000	109.03282	-233.42640	109.03282
7800.00000	108.56405	-236.39717	108.56405
7850.00000	108.09042	-238.77555	108.09042
7900.00000	107.65685	-241.06161	107.65685
7950.00000	107.23557	-243.08739	107.23557
8000.00000	106.80474	-244.81696	106.80474
8050.00000	106.42481	-246.60880	106.42481
8100.00000	106.04858	-246.87497	106.04858
8150.00000	105.63729	-248.19710	105.63729
8200.00000	105.28373	-248.38469	105.28373
8250.00000	104.91981	-248.92639	104.91981
8300.00000	104.55652	-249.23893	104.55652
8350.00000	104.18562	-249.43946	104.18562
8400.00000	103.79372	-250.41989	103.79372
8450.00000	103.37640	-251.24815	103.37640
8500.00000	103.03008	-252.31706	103.03008
8550.00000	102.77356	-253.62351	102.77356
8600.00000	102.55653	-255.60303	102.55653
8650.00000	102.37929	-257.19513	102.37929
8700.00000	102.31848	-259.61655	102.31848
8750.00000	102.23806	-259.88583	102.23806
8800.00000	102.25017	-261.48907	102.25017
8850.00000	102.20877	-262.19466	102.20877
8900.00000	102.17357	-262.40513	102.17357
8950.00000	102.07194	-262.65818	102.07194
9000.00000	101.80727	-262.62690	101.80727
9050.00000	101.60460	-263.04487	101.60460
9100.00000	101.33374	-263.64082	101.33374
9150.00000	101.01253	-264.84519	101.01253
9200.00000	100.76316	-266.37789	100.76316
9250.00000	100.47342	-268.45452	100.47342
9300.00000	100.26132	-271.19017	100.26132
9350.00000	100.32174	-273.40419	100.32174
9400.00000	100.25557	-274.98971	100.25557
9450.00000	100.36116	-276.02603	100.36116
9500.00000	100.54280	-275.88089	100.54280
9550.00000	100.75557	-275.52366	100.75557
9600.00000	100.88725	-276.38253	100.88725
9650.00000	100.85906	-276.93512	100.85906
9700.00000	100.73201	-276.89039	100.73201
9750.00000	100.62904	-278.41476	100.62904
9800.00000	100.40890	-279.47281	100.40890
9850.00000	100.26487	-280.93024	100.26487
9900.00000	100.10997	-283.24991	100.10997
9950.00000	100.10171	-285.34137	100.10171
10000.00000	100.16972	-288.03213	100.16972
10050.00000	100.27142	-289.68988	100.27142
10100.00000	100.37944	-290.98456	100.37944
10150.00000	100.38873	-292.61050	100.38873
10200.00000	100.41121	-293.81966	100.41121
10250.00000	100.32678	-295.25728	100.32678
10300.00000	100.31773	-297.03746	100.31773
10350.00000	100.16773	-298.98744	100.16773
10400.00000	99.97700	-301.72041	99.97700
10450.00000	100.00501	-304.93198	100.00501
10500.00000	99.98669	-307.87550	99.98669
10550.00000	100.04523	-311.15450	100.04523
10600.00000	100.09397	-313.64308	100.09397
10650.00000	100.07532	-315.70469	100.07532
10700.00000	100.07098	-318.59436	100.07098
10750.00000	100.02011	-320.89112	100.02011
10800.00000	99.80307	-323.01880	99.80307
10850.00000	99.61593	-326.22900	99.61593
10900.00000	99.41056	-328.72858	99.41056
10950.00000	99.21036	-331.25300	99.21036
11000.00000	99.02446	-334.06930	99.02446
11050.00000	98.72089	-336.81501	98.72089
11100.00000	98.50470	-339.65581	98.50470
11150.00000	98.20513	-341.66204	98.20513
11200.00000	97.98401	-343.59098	97.98401
11250.00000	97.66001	-345.79606	97.66001
11300.00000	97.26939	-347.84186	97.26939
11350.00000	96.94080	-349.32897	96.94080
11400.00000	96.48775	-351.27450	96.48775
11450.00000	96.21458	-353.32158	96.21458
11500.00000	96.01937	-354.16202	96.01937
11550.00000	95.64358	-355.02783	95.64358
11600.00000	95.44836	-356.72438	95.44836
11650.00000	95.14845	-356.57423	95.14845
11700.00000	94.93002	-357.21297	94.93002
11750.00000	94.73410	-358.18166	94.73410
11800.00000	94.50857	-359.19483	94.50857
11850.00000	94.36975	-359.07102	94.36975
11900.00000	94.04533	-360.49815	94.04533
11950.00000	93.92670	-360.40851	93.92670
12000.00000	93.72381	-360.06361	93.72381
12050.00000	93.48369	-360.28753	93.48369
12100.00000	93.34883	-361.57214	93.34883
12150.00000	93.14513	-362.24203	93.14513
12200.00000	93.13915	-363.60718	93.13915
12250.00000	92.99503	-364.42180	92.99503
12300.00000	94.09535	-365.82476	94.09535
12350.00000	92.96736	-366.22924	92.96736
12400.00000	92.87241	-366.17389	92.87241
12450.00000	92.76557	-366.36798	92.76557
12500.00000	92.62169	-367.63483	92.62169
12550.00000	92.43791	-368.18226	92.43791
12600.00000	92.12011	-370.18963	92.12011
12650.00000	92.20237	-371.69697	92.20237
12700.00000	92.04399	-373.01625	92.04399
12750.00000	91.92790	-374.68071	91.92790
12800.00000	91.77145	-375.46474	91.77145
12850.00000	91.29791	-375.61152	91.29791
12900.00000	91.12632	-376.69695	91.12632
12950.00000	90.87361	-376.97655	90.87361
13000.00000	90.66872	-378.94001	90.66872
13050.00000	90.52941	-378.60499	90.52941
13100.00000	90.09374	-379.72077	90.09374
13150.00000	89.98098	-380.17057	89.98098
13200.00000	89.76832	-379.08529	89.76832
13250.00000	89.59198	-378.74162	89.59198
13300.00000	89.26671	-376.01898	89.26671
13350.00000	89.00235	-375.99696	89.00235
13400.00000	88.93483	-375.67642	88.93483
13450.00000	88.60087	-373.91246	88.60087
13500.00000	88.71374	-373.01531	88.71374
13550.00000	88.36398	-371.38518	88.36398
13600.00000	88.52591	-370.51168	88.52591
13650.00000	88.36628	-367.81980	88.36628
13700.00000	88.22403	-366.65479	88.22403
13750.00000	87.97524	-365.07136	87.97524
13800.00000	88.01891	-365.65059	88.01891
13850.00000	87.88823	-366.11320	87.88823
13900.00000	87.98236	-364.27076	87.98236
13950.00000	88.35950	-363.33760	88.35950
14000.00000	88.85719	-359.75092	88.85719
14050.00000	88.94902	-357.14651	88.94902
14100.00000	88.89889	-355.59245	88.89889
14150.00000	89.20271	-353.54301	89.20271
14200.00000	89.32799	-353.34021	89.32799
14250.00000	89.98256	-351.34966	89.98256
14300.00000	90.30299	-350.45572	90.30299
14350.00000	90.69616	-348.43643	90.69616
14400.00000	90.76636	-347.34656	90.76636
14450.00000	91.09159	-345.20294	91.09159
14500.00000	91.48194	-345.27506	91.48194
14550.00000	91.89778	-344.31636	91.89778
14600.00000	92.11714	-345.12872	92.11714
14650.00000	92.92098	-343.76651	92.92098
14700.00000	93.39866	-346.75831	93.39866
14750.00000	93.86311	-346.43381	93.86311
14800.00000	94.27414	-345.94605	94.27414
14850.00000	94.97840	-346.10247	94.97840
14900.00000	95.47560	-346.36548	95.47560
14950.00000	95.94121	-347.45807	95.94121
15000.00000	96.50557	-348.94310	96.50557
15050.00000	96.94257	-348.63556	96.94257
15100.00000	97.59277	-349.52077	97.59277
15150.00000	98.29571	-351.63559	98.29571
15200.00000	98.72348	-351.00247	98.72348
15250.00000	99.02636	-353.99072	99.02636
15300.00000	99.73073	-356.54186	99.73073
15350.00000	100.22180	-359.81274	100.22180
15400.00000	100.67082	-361.26749	100.67082
15450.00000	101.22725	-364.32431	101.22725
15500.00000	101.78296	-366.92690	101.78296
15550.00000	102.28274	-369.79207	102.28274
15600.00000	102.65306	-373.28397	102.65306
15650.00000	103.25285	-374.69779	103.25285
15700.00000	103.46934	-379.52731	103.46934
15750.00000	104.01856	-382.69292	104.01856
15800.00000	104.43715	-385.48256	104.43715
15850.00000	104.77933	-388.92048	104.77933
15900.00000	104.96911	-393.07563	104.96911
15950.00000	105.37718	-396.59816	105.37718
16000.00000	105.64783	-400.34164	105.64783
16050.00000	105.99495	-404.01274	105.99495
16100.00000	106.09355	-408.17438	106.09355
16150.00000	106.26669	-411.71114	106.26669
16200.00000	106.46232	-416.04941	106.46232
16250.00000	106.66515	-419.42383	106.66515
16300.00000	106.95086	-423.07717	106.95086
16350.00000	107.06936	-426.64706	107.06936
16400.00000	107.21724	-429.67781	107.21724
16450.00000	107.33224	-432.92787	107.33224
16500.00000	107.47106	-436.06875	107.47106
16550.00000	107.61198	-440.33227	107.61198
16600.00000	107.74363	-443.32883	107.74363
16650.00000	107.79230	-446.65110	107.79230
16700.00000	107.94939	-449.58104	107.94939
16750.00000	107.95347	-453.26281	107.95347
16800.00000	108.09663	-456.84367	108.09663
16850.00000	108.26928	-459.96060	108.26928
16900.00000	108.37056	-463.24971	108.37056
16950.00000	108.47558	-466.47116	108.47558
17000.00000	108.41687	-469.82261	108.41687
17050.00000	108.55676	-472.35280	108.55676
17100.00000	108.60236	-475.00034	108.60236
17150.00000	108.77239	-478.34958	108.77239
17200.00000	108.84731	-481.43574	108.84731
17250.00000	108.89072	-485.06989	108.89072
17300.00000	109.01943	-488.04346	109.01943
17350.00000	108.97408	-490.95796	108.97408
17400.00000	109.12765	-494.02025	109.12765
17450.00000	109.13349	-497.63972	109.13349
17500.00000	109.24493	-500.89982	109.24493
17550.00000	109.31355	-504.00303	109.31355
17600.00000	109.46598	-506.80897	109.46598
17650.00000	109.48117	-510.90261	109.48117
17700.00000	109.42202	-514.43488	109.42202
17750.00000	109.69476	-516.91339	109.69476
17800.00000	109.62633	-521.09542	109.62633
17850.00000	109.68607	-524.04552	109.68607
17900.00000	109.67989	-527.55252	109.67989
17950.00000	109.78980	-531.24656	109.78980
18000.00000	109.76743	-535.31535	109.76743
18050.00000	109.92691	-538.32451	109.92691
18100.00000	109.83035	-542.33990	109.83035
18150.00000	109.80169	-545.31919	109.80169
18200.00000	109.72256	-549.62407	109.72256
18250.00000	109.75229	-552.35249	109.75229
18300.00000	109.67986	-555.76550	109.67986
18350.00000	109.68413	-559.26814	109.68413
18400.00000	109.55866	-562.91461	109.55866
18450.00000	109.44234	-567.68920	109.44234
18500.00000	109.38703	-570.84863	109.38703
18550.00000	109.26516	-573.71349	109.26516
18600.00000	109.26563	-577.42374	109.26563
18650.00000	109.00838	-580.33957	109.00838
18700.00000	108.86787	-584.13786	108.86787
18750.00000	108.78426	-587.17803	108.78426
18800.00000	108.75654	-589.76821	108.75654
18850.00000	108.48883	-592.86951	108.48883
18900.00000	108.26072	-595.88011	108.26072
18950.00000	108.21968	-599.13096	108.21968
19000.00000	107.93679	-601.44472	107.93679
19050.00000	107.92996	-604.28518	107.92996
19100.00000	107.74103	-606.73890	107.74103
19150.00000	107.71627	-609.38299	107.71627
19200.00000	107.55641	-611.52491	107.55641
19250.00000	107.43759	-615.19481	107.43759
19300.00000	107.23441	-616.98721	107.23441
19350.00000	107.13602	-619.57712	107.13602
19400.00000	106.98068	-621.82014	106.98068
19450.00000	106.95406	-623.83052	106.95406
19500.00000	106.76066	-627.41349	106.76066
19550.00000	106.68366	-629.29098	106.68366
19600.00000	106.64506	-632.24567	106.64506
19650.00000	106.47258	-634.23370	106.47258
19700.00000	106.26997	-636.83459	106.26997
19750.00000	106.15821	-638.70935	106.15821
19800.00000	106.15309	-641.97712	106.15309
19850.00000	106.06044	-644.05554	106.06044
19900.00000	105.88593	-647.23023	105.88593
19950.00000	105.75458	-649.43257	105.75458
20000.00000	105.64157	-651.90163	105.64157
20050.00000	105.52567	-654.29328	105.52567
20100.00000	105.35675	-656.49597	105.35675
20150.00000	105.26413	-658.23447	105.26413
20200.00000	105.09570	-661.42348	105.09570
20250.00000	104.90106	-663.58762	104.90106
20300.00000	104.69152	-665.89972	104.69152
20350.00000	104.59680	-668.20013	104.59680
20400.00000	104.35361	-669.61737	104.35361
20450.00000	104.11401	-671.82400	104.11401
20500.00000	104.00632	-674.04529	104.00632
20550.00000	103.58678	-675.23823	103.58678
20600.00000	103.49450	-676.76329	103.49450
20650.00000	103.29452	-678.29481	103.29452
20700.00000	103.04054	-679.64885	103.04054
20750.00000	102.95286	-680.77668	102.95286
20800.00000	102.72915	-681.44973	102.72915
20850.00000	102.64821	-682.48327	102.64821
20900.00000	102.44211	-683.29690	102.44211
20950.00000	102.32608	-683.51725	102.32608
21000.00000	102.25249	-683.93538	102.25249
21050.00000	102.33341	-683.98995	102.33341
21100.00000	102.29203	-684.15706	102.29203
21150.00000	102.40081	-684.99544	102.40081
21200.00000	102.50629	-685.33462	102.50629
21250.00000	102.59530	-687.26983	102.59530
21300.00000	102.75816	-687.71765	102.75816
21350.00000	102.85907	-688.92512	102.85907
21400.00000	102.97376	-690.86555	102.97376
21450.00000	103.12630	-692.59594	103.12630
21500.00000	103.23859	-694.78035	103.23859
21550.00000	103.23366	-696.42845	103.23366
21600.00000	103.37154	-698.76247	103.37154
21650.00000	103.39479	-701.02441	103.39479
21700.00000	103.43777	-703.13956	103.43777
21750.00000	103.47702	-705.29137	103.47702
21800.00000	103.45971	-707.60201	103.45971
21850.00000	103.39678	-709.65035	103.39678
21900.00000	103.40517	-711.80812	103.40517
21950.00000	103.36471	-713.64700	103.36471
22000.00000	103.37971	-715.36898	103.37971
22050.00000	103.33441	-717.13534	103.33441
22100.00000	103.27800	-719.02339	103.27800
22150.00000	103.21320	-720.75438	103.21320
22200.00000	103.26180	-722.74631	103.26180
22250.00000	103.17880	-723.92236	103.17880
22300.00000	103.05332	-725.81793	103.05332
22350.00000	103.16147	-727.71628	103.16147
22400.00000	103.18669	-729.52699	103.18669
22450.00000	103.10641	-731.17282	103.10641
22500.00000	103.01150	-731.69559	103.01150
22550.00000	103.00566	-733.71823	103.00566
22600.00000	103.00063	-736.53089	103.00063
22650.00000	102.99031	-737.79642	102.99031
22700.00000	102.97454	-739.13056	102.97454
