---ACOUSTIC CALIBRATION---
Filename: C:\Data\AZH DATA\AZH52\RightPrimary.calib
Date: 8/27/2019 11:38:58 AM
Format: 4
Probe Tube Correction File: C:\Data\Probe Tube Calibrations\50_ProbeTube.calib
Experiment VIs: 850
EPL_CFTS.exe V12.0.1 (2012)
DAQmx V9.6

Attenuation (dB): 40.000000
Min Freq (Hz): 50.000000
Max Freq (Hz): 49950.000000
Freq Step (Hz): 50.000000
Sample Rate (Hz): 100000.000000
[Smoothing]
Method=None
MA.Iterations=0
MA.Length=0
Loess.Length=0
Loess.Type=Linear
Loess.Robust=FALSE


Freq(Hz)	Mag(dB)	Phase(deg)	Unsmoothed(dB)

50.00000	102.86979	493.41345	102.86979
100.00000	82.02255	538.64525	82.02255
150.00000	77.41360	522.50579	77.41360
200.00000	78.55223	487.42327	78.55223
250.00000	89.72683	504.84072	89.72683
300.00000	83.50048	431.22254	83.50048
350.00000	82.79610	404.31761	82.79610
400.00000	81.99942	388.75088	81.99942
450.00000	86.37242	367.45108	86.37242
500.00000	85.70460	391.35839	85.70460
550.00000	90.85639	369.40766	90.85639
600.00000	93.27977	367.94676	93.27977
650.00000	95.78949	353.59674	95.78949
700.00000	98.40228	332.68579	98.40228
750.00000	99.77697	319.70267	99.77697
800.00000	100.75721	293.32550	100.75721
850.00000	100.08661	279.85169	100.08661
900.00000	98.21375	262.59885	98.21375
950.00000	96.49187	260.45628	96.49187
1000.00000	94.86315	262.38634	94.86315
1050.00000	93.09869	279.22198	93.09869
1100.00000	95.48427	298.60348	95.48427
1150.00000	98.27443	302.81092	98.27443
1200.00000	100.90180	301.01305	100.90180
1250.00000	102.39910	291.57372	102.39910
1300.00000	104.16839	286.30906	104.16839
1350.00000	105.26384	276.49715	105.26384
1400.00000	106.10923	270.48939	106.10923
1450.00000	107.17950	262.96436	107.17950
1500.00000	107.94459	256.91726	107.94459
1550.00000	109.10486	247.25424	109.10486
1600.00000	110.36831	237.79100	110.36831
1650.00000	111.41621	220.07310	111.41621
1700.00000	110.04156	210.57701	110.04156
1750.00000	109.81431	204.86879	109.81431
1800.00000	109.52940	199.92191	109.52940
1850.00000	109.70517	199.71289	109.70517
1900.00000	110.86273	195.30319	110.86273
1950.00000	111.50231	181.95093	111.50231
2000.00000	110.48744	170.49453	110.48744
2050.00000	109.30516	175.94651	109.30516
2100.00000	111.30710	174.17411	111.30710
2150.00000	111.81145	163.10243	111.81145
2200.00000	111.67329	153.20097	111.67329
2250.00000	111.05879	145.99635	111.05879
2300.00000	111.15072	140.65985	111.15072
2350.00000	110.85069	134.04641	110.85069
2400.00000	110.52847	128.92566	110.52847
2450.00000	110.22929	122.08499	110.22929
2500.00000	109.84767	117.31073	109.84767
2550.00000	109.36996	111.78072	109.36996
2600.00000	108.75515	107.64503	108.75515
2650.00000	108.27667	103.94501	108.27667
2700.00000	107.65496	99.75809	107.65496
2750.00000	106.98775	96.41657	106.98775
2800.00000	106.25701	93.68264	106.25701
2850.00000	105.46604	92.67982	105.46604
2900.00000	104.70200	91.27407	104.70200
2950.00000	103.75930	90.87505	103.75930
3000.00000	102.68135	92.42974	102.68135
3050.00000	101.49930	94.94059	101.49930
3100.00000	100.43729	102.49871	100.43729
3150.00000	99.42677	112.43369	99.42677
3200.00000	99.42197	129.94775	99.42197
3250.00000	100.74126	143.14699	100.74126
3300.00000	102.41103	152.87616	102.41103
3350.00000	104.28790	158.49130	104.28790
3400.00000	106.59906	162.56365	106.59906
3450.00000	108.86320	161.10852	108.86320
3500.00000	110.98736	156.65286	110.98736
3550.00000	112.54949	149.55080	112.54949
3600.00000	113.98721	143.10357	113.98721
3650.00000	115.15829	135.34964	115.15829
3700.00000	116.19434	127.87686	116.19434
3750.00000	117.14758	120.00932	117.14758
3800.00000	117.90179	111.46652	117.90179
3850.00000	118.46473	103.46324	118.46473
3900.00000	118.97233	96.44793	118.97233
3950.00000	119.56627	89.32453	119.56627
4000.00000	120.11129	81.96157	120.11129
4050.00000	120.65326	74.61147	120.65326
4100.00000	121.23346	66.82417	121.23346
4150.00000	121.93098	58.15346	121.93098
4200.00000	122.29050	48.14044	122.29050
4250.00000	122.56930	37.76009	122.56930
4300.00000	122.65440	27.22667	122.65440
4350.00000	122.51482	16.82719	122.51482
4400.00000	122.24697	 7.40318	122.24697
4450.00000	121.88293	-1.31185	121.88293
4500.00000	121.50988	-9.41710	121.50988
4550.00000	121.13522	-17.21858	121.13522
4600.00000	120.70961	-24.71666	120.70961
4650.00000	120.30121	-32.16389	120.30121
4700.00000	119.82937	-40.19839	119.82937
4750.00000	119.17547	-48.30339	119.17547
4800.00000	118.30284	-56.20872	118.30284
4850.00000	117.17301	-62.76744	117.17301
4900.00000	115.90667	-67.12218	115.90667
4950.00000	114.69704	-69.06817	114.69704
5000.00000	113.62586	-69.26341	113.62586
5050.00000	112.72102	-69.06887	112.72102
5100.00000	111.81178	-65.08062	111.81178
5150.00000	111.97211	-61.06830	111.97211
5200.00000	111.86267	-56.52808	111.86267
5250.00000	113.49755	-56.91406	113.49755
5300.00000	113.81014	-67.28739	113.81014
5350.00000	113.25742	-73.40890	113.25742
5400.00000	112.70904	-76.56999	112.70904
5450.00000	112.34013	-78.67431	112.34013
5500.00000	112.02677	-80.43908	112.02677
5550.00000	111.78257	-82.19691	111.78257
5600.00000	111.58960	-83.91338	111.58960
5650.00000	111.43624	-85.59688	111.43624
5700.00000	111.27490	-87.34138	111.27490
5750.00000	111.16761	-88.98241	111.16761
5800.00000	111.10810	-90.66384	111.10810
5850.00000	111.07708	-92.42036	111.07708
5900.00000	111.08937	-94.41497	111.08937
5950.00000	111.13277	-96.80480	111.13277
6000.00000	111.13738	-99.35796	111.13738
6050.00000	111.08687	-102.26575	111.08687
6100.00000	111.04746	-105.11625	111.04746
6150.00000	110.95389	-107.92248	110.95389
6200.00000	110.85643	-110.47629	110.85643
6250.00000	110.74947	-113.26684	110.74947
6300.00000	110.66270	-115.92959	110.66270
6350.00000	110.55180	-118.48075	110.55180
6400.00000	110.44914	-120.98951	110.44914
6450.00000	110.36834	-123.42281	110.36834
6500.00000	110.27272	-125.98747	110.27272
6550.00000	110.16680	-128.45153	110.16680
6600.00000	110.07273	-130.84518	110.07273
6650.00000	109.99545	-133.20481	109.99545
6700.00000	109.93133	-135.75656	109.93133
6750.00000	109.84251	-138.19400	109.84251
6800.00000	109.80316	-140.53261	109.80316
6850.00000	109.72119	-142.99911	109.72119
6900.00000	109.67962	-145.48426	109.67962
6950.00000	109.59751	-147.88021	109.59751
7000.00000	109.54216	-150.39334	109.54216
7050.00000	109.47329	-153.07112	109.47329
7100.00000	109.44597	-155.63051	109.44597
7150.00000	109.38362	-158.20784	109.38362
7200.00000	109.33796	-160.81603	109.33796
7250.00000	109.23516	-163.56689	109.23516
7300.00000	109.18984	-166.40435	109.18984
7350.00000	109.11363	-169.04027	109.11363
7400.00000	109.04451	-171.97074	109.04451
7450.00000	108.93244	-174.71884	108.93244
7500.00000	108.85912	-177.64569	108.85912
7550.00000	108.76134	-180.34124	108.76134
7600.00000	108.65830	-183.25121	108.65830
7650.00000	108.53948	-186.00390	108.53948
7700.00000	108.44196	-188.73954	108.44196
7750.00000	108.26881	-191.50870	108.26881
7800.00000	108.13604	-194.17715	108.13604
7850.00000	107.99008	-196.67500	107.99008
7900.00000	107.84230	-199.08377	107.84230
7950.00000	107.68879	-201.60914	107.68879
8000.00000	107.58414	-204.05105	107.58414
8050.00000	107.44242	-206.73505	107.44242
8100.00000	107.31964	-208.67916	107.31964
8150.00000	107.15845	-210.86799	107.15845
8200.00000	107.02928	-212.55845	107.02928
8250.00000	106.89026	-214.57294	106.89026
8300.00000	106.80938	-216.41816	106.80938
8350.00000	106.66270	-218.19464	106.66270
8400.00000	106.53779	-220.45005	106.53779
8450.00000	106.35439	-222.15578	106.35439
8500.00000	106.23857	-224.14011	106.23857
8550.00000	106.16986	-226.04774	106.16986
8600.00000	106.08418	-228.51035	106.08418
8650.00000	105.99954	-230.70588	105.99954
8700.00000	105.98337	-233.64549	105.98337
8750.00000	105.91889	-235.12832	105.91889
8800.00000	105.94672	-237.79608	105.94672
8850.00000	105.92287	-240.43345	105.92287
8900.00000	105.93074	-242.59942	105.93074
8950.00000	105.91461	-245.44546	105.91461
9000.00000	105.77367	-247.84246	105.77367
9050.00000	105.70028	-250.80050	105.70028
9100.00000	105.60460	-253.24719	105.60460
9150.00000	105.49685	-256.09211	105.49685
9200.00000	105.46285	-259.03442	105.46285
9250.00000	105.32406	-262.08565	105.32406
9300.00000	105.29237	-265.14894	105.29237
9350.00000	105.26889	-268.14297	105.26889
9400.00000	105.13980	-270.69385	105.13980
9450.00000	105.13631	-273.03669	105.13631
9500.00000	105.16141	-274.69554	105.16141
9550.00000	105.24740	-276.81145	105.24740
9600.00000	105.26827	-279.78327	105.26827
9650.00000	105.15025	-282.71880	105.15025
9700.00000	105.00840	-284.83203	105.00840
9750.00000	104.91025	-288.38004	104.91025
9800.00000	104.71113	-290.69589	104.71113
9850.00000	104.57204	-293.28039	104.57204
9900.00000	104.29755	-296.39896	104.29755
9950.00000	104.17498	-298.97089	104.17498
10000.00000	104.04995	-302.21637	104.04995
10050.00000	103.90523	-304.82767	103.90523
10100.00000	103.72799	-307.09191	103.72799
10150.00000	103.47469	-310.06164	103.47469
10200.00000	103.31682	-312.46682	103.31682
10250.00000	103.06883	-315.35044	103.06883
10300.00000	102.93703	-318.18996	102.93703
10350.00000	102.69188	-320.82406	102.69188
10400.00000	102.40630	-324.05317	102.40630
10450.00000	102.33564	-327.32465	102.33564
10500.00000	102.23077	-330.39407	102.23077
10550.00000	102.07679	-333.44964	102.07679
10600.00000	101.93236	-336.16739	101.93236
10650.00000	101.73675	-338.53423	101.73675
10700.00000	101.54739	-341.94251	101.54739
10750.00000	101.37710	-344.63004	101.37710
10800.00000	101.05557	-346.86669	101.05557
10850.00000	100.74834	-350.40539	100.74834
10900.00000	100.44153	-352.89381	100.44153
10950.00000	100.10757	-355.36851	100.10757
11000.00000	99.79026	-357.84569	99.79026
11050.00000	99.30415	-360.22573	99.30415
11100.00000	98.95150	-362.89023	98.95150
11150.00000	98.48379	-364.61094	98.48379
11200.00000	98.15177	-366.19991	98.15177
11250.00000	97.67161	-368.12805	97.67161
11300.00000	97.20791	-369.69296	97.20791
11350.00000	96.75415	-370.56316	96.75415
11400.00000	96.25242	-371.68579	96.25242
11450.00000	95.89779	-373.09970	95.89779
11500.00000	95.63810	-373.22487	95.63810
11550.00000	95.25048	-373.27772	95.25048
11600.00000	95.03393	-374.28524	95.03393
11650.00000	94.74099	-373.55193	94.74099
11700.00000	94.54299	-373.56963	94.54299
11750.00000	94.35055	-373.61520	94.35055
11800.00000	94.15829	-374.13135	94.15829
11850.00000	94.10593	-373.29981	94.10593
11900.00000	93.77726	-373.94949	93.77726
11950.00000	93.75641	-373.82742	93.75641
12000.00000	93.58713	-373.68765	93.58713
12050.00000	93.46724	-373.44018	93.46724
12100.00000	93.46078	-374.45760	93.46078
12150.00000	93.41903	-374.97220	93.41903
12200.00000	93.42449	-375.78295	93.42449
12250.00000	93.45199	-375.93485	93.45199
12300.00000	94.64483	-376.83826	94.64483
12350.00000	93.51274	-377.76391	93.51274
12400.00000	93.55565	-377.89640	93.55565
12450.00000	93.59688	-378.76565	93.59688
12500.00000	93.56002	-380.39764	93.56002
12550.00000	93.60676	-381.81288	93.60676
12600.00000	93.56857	-383.73452	93.56857
12650.00000	93.72062	-385.24180	93.72062
12700.00000	93.64493	-386.72863	93.64493
12750.00000	93.61533	-388.85773	93.61533
12800.00000	93.54460	-390.61480	93.54460
12850.00000	93.22977	-392.64413	93.22977
12900.00000	93.20134	-394.92305	93.20134
12950.00000	93.22520	-396.97960	93.22520
13000.00000	93.12843	-399.40065	93.12843
13050.00000	93.04397	-400.06572	93.04397
13100.00000	92.77921	-402.61091	92.77921
13150.00000	92.65338	-405.34318	92.65338
13200.00000	92.46591	-405.79466	92.46591
13250.00000	92.29994	-407.33006	92.29994
13300.00000	91.98119	-407.73260	91.98119
13350.00000	91.83664	-409.81238	91.83664
13400.00000	91.74692	-410.60987	91.74692
13450.00000	91.33274	-410.38645	91.33274
13500.00000	91.16196	-409.82870	91.16196
13550.00000	90.73391	-412.69210	90.73391
13600.00000	90.55287	-412.53457	90.55287
13650.00000	90.50056	-413.40629	90.50056
13700.00000	90.07472	-413.18205	90.07472
13750.00000	89.90978	-413.23276	89.90978
13800.00000	89.57121	-415.08515	89.57121
13850.00000	89.34030	-415.84869	89.34030
13900.00000	89.08189	-415.63679	89.08189
13950.00000	89.17951	-416.25366	89.17951
14000.00000	89.24507	-413.95268	89.24507
14050.00000	89.09503	-414.55100	89.09503
14100.00000	88.84266	-413.08031	88.84266
14150.00000	88.90980	-412.68139	88.90980
14200.00000	88.78598	-413.11500	88.78598
14250.00000	89.04028	-410.83535	89.04028
14300.00000	88.90228	-411.60466	88.90228
14350.00000	88.82910	-408.16193	88.82910
14400.00000	88.48582	-408.46110	88.48582
14450.00000	88.55299	-406.15848	88.55299
14500.00000	88.43809	-407.14352	88.43809
14550.00000	88.55905	-405.87113	88.55905
14600.00000	88.52539	-405.91989	88.52539
14650.00000	88.94162	-403.27288	88.94162
14700.00000	89.16749	-406.01373	89.16749
14750.00000	89.08878	-405.08094	89.08878
14800.00000	89.15366	-403.55235	89.15366
14850.00000	89.59297	-402.21988	89.59297
14900.00000	89.86188	-402.20865	89.86188
14950.00000	90.18787	-401.28661	90.18787
15000.00000	90.40994	-400.60255	90.40994
15050.00000	90.50545	-399.31552	90.50545
15100.00000	90.71035	-398.57829	90.71035
15150.00000	91.27534	-399.26819	91.27534
15200.00000	91.51256	-397.41142	91.51256
15250.00000	91.72929	-398.31565	91.72929
15300.00000	92.28548	-399.23772	92.28548
15350.00000	92.52035	-399.71688	92.52035
15400.00000	92.81229	-398.87111	92.81229
15450.00000	93.10514	-399.97086	93.10514
15500.00000	93.67211	-400.49524	93.67211
15550.00000	94.11456	-401.43579	94.11456
15600.00000	94.43398	-403.25263	94.43398
15650.00000	95.01983	-402.15341	95.01983
15700.00000	95.26453	-404.55169	95.26453
15750.00000	95.77400	-405.65503	95.77400
15800.00000	96.24412	-406.21030	96.24412
15850.00000	96.55865	-407.42072	96.55865
15900.00000	96.94542	-410.02509	96.94542
15950.00000	97.48711	-412.25081	97.48711
16000.00000	97.91010	-413.67309	97.91010
16050.00000	98.39604	-416.04197	98.39604
16100.00000	98.55725	-418.91444	98.55725
16150.00000	98.89117	-421.33007	98.89117
16200.00000	99.29246	-424.51788	99.29246
16250.00000	99.66523	-426.92438	99.66523
16300.00000	100.18121	-429.67224	100.18121
16350.00000	100.40542	-432.31567	100.40542
16400.00000	100.67137	-434.66297	100.67137
16450.00000	100.99541	-437.51485	100.99541
16500.00000	101.29097	-440.14769	101.29097
16550.00000	101.60876	-443.92069	101.60876
16600.00000	101.89669	-446.82609	101.89669
16650.00000	102.10935	-449.55339	102.10935
16700.00000	102.34878	-452.37349	102.34878
16750.00000	102.51508	-455.80501	102.51508
16800.00000	102.77006	-459.37466	102.77006
16850.00000	103.04497	-462.73979	103.04497
16900.00000	103.27970	-466.04672	103.27970
16950.00000	103.47834	-469.16410	103.47834
17000.00000	103.48776	-472.72210	103.48776
17050.00000	103.72215	-475.18218	103.72215
17100.00000	103.81233	-477.43883	103.81233
17150.00000	104.03574	-481.76557	104.03574
17200.00000	104.16042	-484.73897	104.16042
17250.00000	104.22960	-488.19534	104.22960
17300.00000	104.44065	-491.47742	104.44065
17350.00000	104.40199	-494.26012	104.40199
17400.00000	104.58199	-497.32221	104.58199
17450.00000	104.60976	-500.95507	104.60976
17500.00000	104.75090	-503.95408	104.75090
17550.00000	104.85546	-506.92568	104.85546
17600.00000	105.02180	-509.38318	105.02180
17650.00000	105.06821	-513.36800	105.06821
17700.00000	105.10386	-516.28412	105.10386
17750.00000	105.33577	-518.94724	105.33577
17800.00000	105.28579	-522.45654	105.28579
17850.00000	105.37931	-525.09116	105.37931
17900.00000	105.43816	-528.35977	105.43816
17950.00000	105.57772	-531.55102	105.57772
18000.00000	105.63257	-535.21941	105.63257
18050.00000	105.85587	-537.64009	105.85587
18100.00000	105.83472	-541.16234	105.83472
18150.00000	105.88517	-543.62177	105.88517
18200.00000	105.89730	-547.23302	105.89730
18250.00000	106.04235	-549.58724	106.04235
18300.00000	106.14526	-552.75938	106.14526
18350.00000	106.23251	-555.62868	106.23251
18400.00000	106.24575	-559.04078	106.24575
18450.00000	106.27380	-563.25952	106.27380
18500.00000	106.36195	-566.20411	106.36195
18550.00000	106.41367	-568.86620	106.41367
18600.00000	106.57022	-572.41705	106.57022
18650.00000	106.49489	-575.40531	106.49489
18700.00000	106.55504	-579.17863	106.55504
18750.00000	106.65272	-582.16609	106.65272
18800.00000	106.81653	-584.97597	106.81653
18850.00000	106.74154	-588.60692	106.74154
18900.00000	106.78182	-591.73861	106.78182
18950.00000	106.84630	-595.51185	106.84630
19000.00000	106.74654	-598.56001	106.74654
19050.00000	106.92343	-602.03408	106.92343
19100.00000	106.88213	-605.29709	106.88213
19150.00000	107.06272	-608.58441	107.06272
19200.00000	107.05864	-611.67746	107.05864
19250.00000	107.07577	-616.35452	107.07577
19300.00000	106.99739	-619.06996	106.99739
19350.00000	107.05406	-622.72742	107.05406
19400.00000	107.02681	-626.12962	107.02681
19450.00000	107.09599	-629.20909	107.09599
19500.00000	107.01484	-633.86028	107.01484
19550.00000	107.04209	-637.35745	107.04209
19600.00000	107.09636	-641.46762	107.09636
19650.00000	107.02037	-644.79894	107.02037
19700.00000	106.87941	-648.84159	106.87941
19750.00000	106.81644	-652.10103	106.81644
19800.00000	106.85559	-656.84101	106.85559
19850.00000	106.79610	-660.48049	106.79610
19900.00000	106.66462	-665.15778	106.66462
19950.00000	106.53778	-669.14594	106.53778
20000.00000	106.43313	-673.22990	106.43313
20050.00000	106.30515	-677.41174	106.30515
20100.00000	106.07686	-681.56734	106.07686
20150.00000	105.93170	-684.88786	105.93170
20200.00000	105.68408	-689.76327	105.68408
20250.00000	105.39183	-693.75238	105.39183
20300.00000	105.05283	-697.87729	105.05283
20350.00000	104.83019	-702.06755	104.83019
20400.00000	104.40973	-705.14148	104.40973
20450.00000	103.95684	-709.07753	103.95684
20500.00000	103.60940	-712.98089	103.60940
20550.00000	102.95672	-715.57358	102.95672
20600.00000	102.58315	-718.44558	102.58315
20650.00000	102.06918	-721.29319	102.06918
20700.00000	101.51099	-723.78889	101.51099
20750.00000	101.05172	-725.59882	101.05172
20800.00000	100.46912	-726.99482	100.46912
20850.00000	99.97543	-728.33842	99.97543
20900.00000	99.40936	-729.16369	99.40936
20950.00000	98.90910	-729.29526	98.90910
21000.00000	98.44134	-729.28415	98.44134
21050.00000	98.16192	-728.71915	98.16192
21100.00000	97.77817	-727.87720	97.77817
21150.00000	97.55296	-727.25191	97.55296
21200.00000	97.35548	-726.38012	97.35548
21250.00000	97.17285	-726.60280	97.17285
21300.00000	97.13549	-725.39069	97.13549
21350.00000	97.03953	-724.52513	97.03953
21400.00000	96.98666	-724.63496	96.98666
21450.00000	97.01290	-724.64309	97.01290
21500.00000	97.07392	-724.89181	97.07392
21550.00000	97.01862	-724.63254	97.01862
21600.00000	97.13538	-725.12941	97.13538
21650.00000	97.16386	-726.00316	97.16386
21700.00000	97.19607	-726.44205	97.19607
21750.00000	97.33980	-727.11846	97.33980
21800.00000	97.35686	-728.01372	97.35686
21850.00000	97.36858	-729.05059	97.36858
21900.00000	97.44900	-729.89222	97.44900
21950.00000	97.53193	-730.80988	97.53193
22000.00000	97.65779	-732.07745	97.65779
22050.00000	97.67918	-732.76082	97.67918
22100.00000	97.67868	-734.05924	97.67868
22150.00000	97.72586	-735.26015	97.72586
22200.00000	97.92412	-736.58728	97.92412
22250.00000	97.93222	-737.51130	97.93222
22300.00000	97.86234	-738.75405	97.86234
22350.00000	98.06002	-740.53626	98.06002
22400.00000	98.13502	-742.16201	98.13502
22450.00000	98.21100	-743.34540	98.21100
22500.00000	98.27011	-743.66224	98.27011
22550.00000	98.26069	-745.68767	98.26069
22600.00000	98.30590	-747.94843	98.30590
22650.00000	98.35141	-749.97846	98.35141
22700.00000	98.45426	-750.92938	98.45426
22750.00000	98.46327	-750.52797	98.46327
22800.00000	98.44328	-754.35026	98.44328
22850.00000	98.63824	-756.90940	98.63824
