---ACOUSTIC CALIBRATION---
Filename: C:\Data\CL0809 DATA\CL08090\RightPrimary.calib
Date: 8/9/2019 8:46:30 AM
Format: 4
Probe Tube Correction File: C:\Data\Probe Tube Calibrations\74_ProbeTube.calib
Experiment VIs: 2128
EPL_CFTS.exe V15.0.1f5 (2015)
DAQmx V15.1

Attenuation (dB): 40.000000
Min Freq (Hz): 50.000000
Max Freq (Hz): 99950.000000
Freq Step (Hz): 50.000000
Sample Rate (Hz): 200000.000000
[Smoothing]
Method=None
MA.Iterations=0
MA.Length=0
Loess.Length=0
Loess.Type=Linear
Loess.Robust=FALSE


Freq(Hz)	Mag(dB)	Phase(deg)	Unsmoothed(dB)

50.00000	87.89889	305.19426	87.89889
100.00000	57.89825	249.38858	57.89825
150.00000	59.40843	424.94865	59.40843
200.00000	50.70367	515.69077	50.70367
250.00000	51.86257	690.62701	51.86257
300.00000	59.71655	795.31156	59.71655
350.00000	62.74984	948.02816	62.74984
400.00000	63.88197	1019.44380	63.88197
450.00000	68.84143	1062.71232	68.84143
500.00000	73.77747	1186.82813	73.77747
550.00000	80.33052	1118.05713	80.33052
600.00000	78.85906	1080.99470	78.85906
650.00000	86.21987	1073.33483	86.21987
700.00000	83.89273	1065.88090	83.89273
750.00000	87.06935	1040.85301	87.06935
800.00000	87.48940	1032.87218	87.48940
850.00000	86.25047	1036.22407	86.25047
900.00000	87.49598	1045.12819	87.49598
950.00000	90.27012	1045.16892	90.27012
1000.00000	92.68208	1051.39104	92.68208
1050.00000	96.02513	1042.05109	96.02513
1100.00000	99.00611	1030.03685	99.00611
1150.00000	101.37720	1014.82506	101.37720
1200.00000	102.94393	997.31876	102.94393
1250.00000	103.59619	980.51013	103.59619
1300.00000	103.95789	968.26016	103.95789
1350.00000	104.47475	959.47835	104.47475
1400.00000	105.68395	950.31760	105.68395
1450.00000	106.62640	935.00364	106.62640
1500.00000	106.90624	920.30621	106.90624
1550.00000	106.74781	905.91007	106.74781
1600.00000	106.68432	897.59811	106.68432
1650.00000	106.60628	890.40482	106.60628
1700.00000	109.79487	873.71608	109.79487
1750.00000	106.14906	853.16809	106.14906
1800.00000	105.40209	848.52374	105.40209
1850.00000	104.80211	841.32447	104.80211
1900.00000	104.46432	834.56966	104.46432
1950.00000	103.67571	829.17724	103.67571
2000.00000	103.13227	825.04564	103.13227
2050.00000	102.79438	823.45743	102.79438
2100.00000	103.41652	821.23188	103.41652
2150.00000	104.13682	811.64041	104.13682
2200.00000	103.97464	797.70478	103.97464
2250.00000	102.89321	788.26163	102.89321
2300.00000	102.05371	784.57486	102.05371
2350.00000	101.98283	778.64672	101.98283
2400.00000	101.77177	770.68072	101.77177
2450.00000	101.02155	761.10136	101.02155
2500.00000	99.91060	756.47475	99.91060
2550.00000	99.42686	751.19355	99.42686
2600.00000	98.74193	745.33707	98.74193
2650.00000	97.95234	740.62971	97.95234
2700.00000	97.12710	735.27086	97.12710
2750.00000	96.23037	730.86614	96.23037
2800.00000	95.45419	726.35510	95.45419
2850.00000	94.64119	723.07651	94.64119
2900.00000	93.80923	719.43011	93.80923
2950.00000	92.99814	716.26368	92.99814
3000.00000	92.15056	713.53564	92.15056
3050.00000	91.23119	710.82938	91.23119
3100.00000	90.32695	708.25770	90.32695
3150.00000	89.31885	706.81974	89.31885
3200.00000	88.49668	705.05352	88.49668
3250.00000	87.78747	704.55670	87.78747
3300.00000	86.81351	703.59442	86.81351
3350.00000	85.99995	702.91223	85.99995
3400.00000	85.10108	703.89564	85.10108
3450.00000	84.42510	704.06046	84.42510
3500.00000	83.69881	704.52571	83.69881
3550.00000	83.38263	703.78709	83.38263
3600.00000	82.54631	700.58046	82.54631
3650.00000	81.56270	698.45166	81.56270
3700.00000	80.34929	694.20616	80.34929
3750.00000	78.69019	689.47345	78.69019
3800.00000	76.22715	683.23005	76.22715
3850.00000	71.95388	675.13773	71.95388
3900.00000	62.87343	678.82582	62.87343
3950.00000	61.73529	805.61930	61.73529
4000.00000	68.95929	822.75933	68.95929
4050.00000	73.42465	827.29229	73.42465
4100.00000	76.37194	829.35975	76.37194
4150.00000	79.60882	825.75706	79.60882
4200.00000	81.39424	818.16618	81.39424
4250.00000	80.58740	801.55943	80.58740
4300.00000	80.28742	825.67333	80.28742
4350.00000	83.23064	826.37621	83.23064
4400.00000	85.10293	822.26707	85.10293
4450.00000	86.10814	816.59097	86.10814
4500.00000	87.07524	812.56930	87.07524
4550.00000	87.73874	808.75191	87.73874
4600.00000	88.38424	804.06194	88.38424
4650.00000	88.64742	801.53127	88.64742
4700.00000	89.04027	801.93533	89.04027
4750.00000	89.77626	801.59089	89.77626
4800.00000	90.66929	801.35113	90.66929
4850.00000	91.60699	799.93277	91.60699
4900.00000	92.64176	797.40523	92.64176
4950.00000	93.71421	794.62191	93.71421
5000.00000	94.81561	790.98701	94.81561
5050.00000	95.99736	786.84785	95.99736
5100.00000	97.30924	781.89080	97.30924
5150.00000	98.86177	775.61568	98.86177
5200.00000	100.83161	766.43146	100.83161
5250.00000	103.41814	749.95008	103.41814
5300.00000	105.62089	712.70355	105.62089
5350.00000	102.13083	665.38651	102.13083
5400.00000	95.53736	649.17994	95.53736
5450.00000	89.58319	661.10077	89.58319
5500.00000	87.83263	690.03514	87.83263
5550.00000	88.80674	697.70325	88.80674
5600.00000	87.25344	698.98291	87.25344
5650.00000	86.40394	719.36778	86.40394
5700.00000	88.10905	732.39734	88.10905
5750.00000	89.83484	735.63652	89.83484
5800.00000	91.11570	735.22439	91.11570
5850.00000	92.12631	733.21423	92.12631
5900.00000	92.93657	729.80915	92.93657
5950.00000	93.61502	726.07371	93.61502
6000.00000	93.99722	721.93228	93.99722
6050.00000	94.18545	717.78540	94.18545
6100.00000	94.14821	714.73830	94.14821
6150.00000	94.02811	713.17264	94.02811
6200.00000	94.00730	713.88882	94.00730
6250.00000	94.17528	715.72945	94.17528
6300.00000	94.65602	718.11652	94.65602
6350.00000	95.46104	720.11686	95.46104
6400.00000	96.52245	720.35523	96.52245
6450.00000	97.72619	718.68215	97.72619
6500.00000	98.89278	715.18959	98.89278
6550.00000	99.97549	710.27026	99.97549
6600.00000	100.93138	704.31336	100.93138
6650.00000	101.78457	697.56413	101.78457
6700.00000	102.54489	690.27719	102.54489
6750.00000	103.20161	682.45458	103.20161
6800.00000	103.75724	673.83717	103.75724
6850.00000	104.12410	664.53159	104.12410
6900.00000	104.27294	655.42461	104.27294
6950.00000	104.28216	646.63922	104.28216
7000.00000	104.18803	638.41615	104.18803
7050.00000	104.00943	630.45887	104.00943
7100.00000	103.74609	622.94237	103.74609
7150.00000	103.43025	615.92149	103.43025
7200.00000	103.09592	609.32094	103.09592
7250.00000	102.67821	603.01771	102.67821
7300.00000	102.25059	597.23336	102.25059
7350.00000	101.82614	591.79701	101.82614
7400.00000	101.36688	586.86763	101.36688
7450.00000	100.95072	581.98747	100.95072
7500.00000	100.48583	577.36589	100.48583
7550.00000	99.99375	572.76722	99.99375
7600.00000	99.50031	568.68795	99.50031
7650.00000	98.98457	564.62246	98.98457
7700.00000	98.40248	561.08818	98.40248
7750.00000	97.86727	557.98280	97.86727
7800.00000	97.33472	555.13158	97.33472
7850.00000	96.78661	552.69584	96.78661
7900.00000	96.29887	550.59929	96.29887
7950.00000	95.86134	548.60353	95.86134
8000.00000	95.37440	547.13048	95.37440
8050.00000	94.97221	545.63832	94.97221
8100.00000	94.53115	544.40282	94.53115
8150.00000	94.12788	543.32721	94.12788
8200.00000	93.82409	542.37460	93.82409
8250.00000	93.55290	541.90176	93.55290
8300.00000	93.29734	540.88343	93.29734
8350.00000	93.03796	539.98663	93.03796
8400.00000	92.87280	538.59926	92.87280
8450.00000	92.70811	537.77833	92.70811
8500.00000	92.52636	536.79050	92.52636
8550.00000	92.34830	535.96806	92.34830
8600.00000	92.19472	534.95972	92.19472
8650.00000	92.10225	533.86321	92.10225
8700.00000	92.00365	532.91396	92.00365
8750.00000	91.86961	531.51893	91.86961
8800.00000	91.82165	530.91898	91.82165
8850.00000	91.74368	529.04492	91.74368
8900.00000	91.56790	528.23278	91.56790
8950.00000	91.56324	527.45535	91.56324
9000.00000	91.49948	526.07448	91.49948
9050.00000	91.45925	524.81748	91.45925
9100.00000	91.38874	524.34480	91.38874
9150.00000	91.36179	523.22257	91.36179
9200.00000	91.35213	522.22823	91.35213
9250.00000	91.34440	520.93009	91.34440
9300.00000	91.31694	519.57948	91.31694
9350.00000	91.38728	518.43695	91.38728
9400.00000	91.38415	517.07142	91.38415
9450.00000	91.45938	515.47715	91.45938
9500.00000	91.54384	514.70964	91.54384
9550.00000	91.53635	512.94293	91.53635
9600.00000	91.65651	511.70693	91.65651
9650.00000	91.79278	510.00391	91.79278
9700.00000	91.84565	508.44890	91.84565
9750.00000	91.88956	506.40726	91.88956
9800.00000	91.91905	504.58331	91.91905
9850.00000	91.93718	502.99484	91.93718
9900.00000	91.93181	501.46784	91.93181
9950.00000	91.82200	500.52014	91.82200
10000.00000	91.69786	501.06447	91.69786
10050.00000	91.91937	503.89036	91.91937
10100.00000	92.88369	504.43187	92.88369
10150.00000	93.62839	499.61351	93.62839
10200.00000	93.92419	494.93958	93.92419
10250.00000	94.02035	491.07707	94.02035
10300.00000	94.14458	488.03888	94.14458
10350.00000	94.27310	484.90265	94.27310
10400.00000	94.38375	482.39435	94.38375
10450.00000	94.58688	479.13598	94.58688
10500.00000	94.79956	476.05459	94.79956
10550.00000	95.00099	472.99749	95.00099
10600.00000	95.25568	469.40053	95.25568
10650.00000	95.47693	465.77470	95.47693
10700.00000	95.68910	461.95122	95.68910
10750.00000	95.91932	457.99331	95.91932
10800.00000	96.11943	453.36553	96.11943
10850.00000	96.30896	448.86374	96.30896
10900.00000	96.48854	444.27989	96.48854
10950.00000	96.60395	439.38721	96.60395
11000.00000	96.75517	434.55435	96.75517
11050.00000	96.79106	429.32724	96.79106
11100.00000	96.82935	424.05054	96.82935
11150.00000	96.80558	418.55754	96.80558
11200.00000	96.74514	413.12299	96.74514
11250.00000	96.58696	407.39081	96.58696
11300.00000	96.41413	402.07785	96.41413
11350.00000	96.21549	396.38096	96.21549
11400.00000	95.92657	390.76493	95.92657
11450.00000	95.62365	385.22233	95.62365
11500.00000	95.27030	379.80340	95.27030
11550.00000	94.91669	374.50464	94.91669
11600.00000	94.51886	369.56156	94.51886
11650.00000	94.10041	364.90696	94.10041
11700.00000	93.70819	360.17691	93.70819
11750.00000	93.22709	355.66950	93.22709
11800.00000	92.83278	352.02440	92.83278
11850.00000	92.42677	347.61526	92.42677
11900.00000	91.92731	344.28663	91.92731
11950.00000	91.52790	341.01700	91.52790
12000.00000	91.08840	337.88758	91.08840
12050.00000	90.65374	335.04081	90.65374
12100.00000	90.11879	332.22559	90.11879
12150.00000	89.65987	329.30996	89.65987
12200.00000	89.24555	325.97407	89.24555
12250.00000	88.74581	323.09138	88.74581
12300.00000	88.11957	320.44553	88.11957
12350.00000	87.69601	317.14765	87.69601
12400.00000	87.14643	313.40579	87.14643
12450.00000	86.80298	310.27446	86.80298
12500.00000	86.34136	307.71667	86.34136
12550.00000	85.78667	304.78327	85.78667
12600.00000	85.42921	300.47312	85.42921
12650.00000	85.01290	297.30637	85.01290
12700.00000	84.49424	293.74498	84.49424
12750.00000	84.04323	291.28562	84.04323
12800.00000	83.64672	287.83752	83.64672
12850.00000	83.07966	284.59841	83.07966
12900.00000	82.45238	280.06066	82.45238
12950.00000	82.04496	275.53635	82.04496
13000.00000	81.68284	270.32203	81.68284
13050.00000	81.26714	263.34177	81.26714
13100.00000	80.79337	258.47546	80.79337
13150.00000	80.71781	252.60747	80.71781
13200.00000	80.70323	243.91250	80.70323
13250.00000	80.91205	234.65916	80.91205
13300.00000	81.35051	229.13726	81.35051
13350.00000	82.16497	223.42864	82.16497
13400.00000	82.71089	222.06639	82.71089
13450.00000	83.75990	226.58312	83.75990
13500.00000	83.24251	234.86604	83.24251
13550.00000	81.79029	234.01667	81.79029
13600.00000	80.32073	231.62055	80.32073
13650.00000	78.97674	220.08105	78.97674
13700.00000	78.18398	208.41407	78.18398
13750.00000	77.80069	193.32829	77.80069
13800.00000	77.72857	179.86716	77.72857
13850.00000	78.30578	165.52056	78.30578
13900.00000	78.79721	150.27768	78.79721
13950.00000	80.48662	136.41924	80.48662
14000.00000	82.08330	126.09635	82.08330
14050.00000	84.39034	119.55265	84.39034
14100.00000	86.72591	117.21673	86.72591
14150.00000	88.50498	124.37191	88.50498
14200.00000	88.72804	135.63378	88.72804
14250.00000	87.94988	141.88885	87.94988
14300.00000	86.61144	141.39017	86.61144
14350.00000	85.63378	136.48610	85.63378
14400.00000	85.10210	128.97012	85.10210
14450.00000	84.91774	120.88756	84.91774
14500.00000	84.69804	111.65818	84.69804
14550.00000	84.82596	104.00346	84.82596
14600.00000	85.31069	94.28900	85.31069
14650.00000	85.89994	86.43317	85.89994
14700.00000	86.85572	78.44441	86.85572
14750.00000	87.93815	72.54078	87.93815
14800.00000	88.74893	67.61520	88.74893
14850.00000	90.01372	65.21882	90.01372
14900.00000	91.08049	64.25395	91.08049
14950.00000	91.78975	67.07602	91.78975
15000.00000	91.87990	67.25070	91.87990
15050.00000	91.92185	69.05240	91.92185
15100.00000	91.66396	67.77457	91.66396
15150.00000	91.20122	65.61801	91.20122
15200.00000	91.08540	61.77582	91.08540
15250.00000	90.83689	56.63797	90.83689
15300.00000	90.91567	50.75600	90.91567
15350.00000	91.27498	45.80238	91.27498
15400.00000	91.34490	40.63429	91.34490
15450.00000	91.87386	33.09439	91.87386
15500.00000	92.38369	29.14253	92.38369
15550.00000	92.91686	25.73407	92.91686
15600.00000	93.58512	22.88946	93.58512
15650.00000	94.09486	21.51422	94.09486
15700.00000	94.33375	20.31247	94.33375
15750.00000	94.70779	20.04016	94.70779
15800.00000	94.69578	18.33441	94.69578
15850.00000	94.82850	17.43627	94.82850
15900.00000	94.78572	14.25471	94.78572
15950.00000	94.75251	11.66455	94.75251
16000.00000	94.76587	 8.25051	94.76587
16050.00000	95.00945	 4.17295	95.00945
16100.00000	95.19665	-0.08816	95.19665
16150.00000	95.55083	-4.48795	95.55083
16200.00000	95.94537	-7.75567	95.94537
16250.00000	96.37711	-12.02530	96.37711
16300.00000	96.68999	-15.31202	96.68999
16350.00000	97.03490	-17.68115	97.03490
16400.00000	97.40681	-20.46809	97.40681
16450.00000	97.60574	-23.11615	97.60574
16500.00000	97.85653	-26.17537	97.85653
16550.00000	98.00422	-28.97232	98.00422
16600.00000	98.06797	-32.02553	98.06797
16650.00000	98.13525	-36.12478	98.13525
16700.00000	98.26171	-40.06600	98.26171
16750.00000	98.32675	-44.53640	98.32675
16800.00000	98.47840	-48.12251	98.47840
16850.00000	98.69587	-52.17480	98.69587
16900.00000	98.80576	-56.03537	98.80576
16950.00000	98.95340	-59.94697	98.95340
17000.00000	99.16290	-63.24553	99.16290
17050.00000	99.22143	-65.84245	99.22143
17100.00000	99.39392	-69.25006	99.39392
17150.00000	99.39151	-72.26408	99.39151
17200.00000	99.41426	-75.62018	99.41426
17250.00000	99.41443	-79.05355	99.41443
17300.00000	99.42019	-82.50968	99.42019
17350.00000	99.43020	-86.23096	99.43020
17400.00000	99.48444	-89.91392	99.48444
17450.00000	99.56480	-93.41925	99.56480
17500.00000	99.57362	-97.25127	99.57362
17550.00000	99.59621	-100.51888	99.59621
17600.00000	99.64597	-103.87634	99.64597
17650.00000	99.71613	-106.71176	99.71613
17700.00000	99.76300	-109.66375	99.76300
17750.00000	99.75193	-112.82033	99.75193
17800.00000	99.73636	-115.72193	99.73636
17850.00000	99.78672	-118.74370	99.78672
17900.00000	99.79934	-121.67549	99.79934
17950.00000	99.71336	-124.55213	99.71336
18000.00000	99.74911	-127.75541	99.74911
18050.00000	99.71936	-130.94795	99.71936
18100.00000	99.72381	-133.99045	99.72381
18150.00000	99.66452	-137.15317	99.66452
18200.00000	99.71125	-140.17679	99.71125
18250.00000	99.65360	-143.04109	99.65360
18300.00000	99.63934	-146.24669	99.63934
18350.00000	99.60355	-149.33632	99.60355
18400.00000	99.58447	-152.02405	99.58447
18450.00000	99.53805	-154.75208	99.53805
18500.00000	99.50690	-157.51343	99.50690
18550.00000	99.51117	-160.56574	99.51117
18600.00000	99.45483	-163.21962	99.45483
18650.00000	99.40365	-165.92990	99.40365
18700.00000	99.41531	-168.60335	99.41531
18750.00000	99.32422	-171.10367	99.32422
18800.00000	99.31141	-174.09365	99.31141
18850.00000	99.24549	-176.34882	99.24549
18900.00000	99.19249	-178.92980	99.19249
18950.00000	99.15440	-181.38932	99.15440
19000.00000	99.08255	-183.91464	99.08255
19050.00000	99.06683	-186.65133	99.06683
19100.00000	99.01583	-188.98400	99.01583
19150.00000	98.97905	-191.18262	98.97905
19200.00000	98.97189	-193.81485	98.97189
19250.00000	98.94828	-196.00924	98.94828
19300.00000	98.94441	-198.41312	98.94441
19350.00000	98.91975	-200.92169	98.91975
19400.00000	98.89950	-203.02460	98.89950
19450.00000	98.89377	-205.46266	98.89377
19500.00000	98.87683	-207.84962	98.87683
19550.00000	98.87472	-210.08182	98.87472
19600.00000	98.87386	-212.70678	98.87386
19650.00000	98.87556	-215.13577	98.87556
19700.00000	98.88968	-217.40532	98.88968
19750.00000	98.86794	-219.66498	98.86794
19800.00000	98.88055	-221.67388	98.88055
19850.00000	98.88177	-224.49654	98.88177
19900.00000	98.89811	-226.75350	98.89811
19950.00000	98.90362	-228.99118	98.90362
20000.00000	98.90939	-231.92779	98.90939
20050.00000	98.91578	-233.77756	98.91578
20100.00000	98.95409	-236.31896	98.95409
20150.00000	98.93459	-238.89784	98.93459
20200.00000	98.96724	-241.44930	98.96724
20250.00000	98.99208	-243.51669	98.99208
20300.00000	99.01584	-246.20794	99.01584
20350.00000	99.02984	-248.64919	99.02984
20400.00000	99.03488	-250.97118	99.03488
20450.00000	99.08096	-253.31937	99.08096
20500.00000	99.13273	-256.17904	99.13273
20550.00000	99.14851	-258.73711	99.14851
20600.00000	99.13663	-261.12633	99.13663
20650.00000	99.19996	-263.86061	99.19996
20700.00000	99.20617	-266.29340	99.20617
20750.00000	99.21982	-268.84187	99.21982
20800.00000	99.23312	-271.45399	99.23312
20850.00000	99.26657	-274.31941	99.26657
20900.00000	99.28421	-276.70561	99.28421
20950.00000	99.31899	-279.66813	99.31899
21000.00000	99.36519	-282.60554	99.36519
21050.00000	99.40390	-285.43693	99.40390
21100.00000	99.40444	-287.99343	99.40444
21150.00000	99.43018	-290.66127	99.43018
21200.00000	99.43955	-293.87345	99.43955
21250.00000	99.41082	-296.62703	99.41082
21300.00000	99.40249	-299.56633	99.40249
21350.00000	99.41740	-302.53069	99.41740
21400.00000	99.40364	-305.94270	99.40364
21450.00000	99.40781	-308.82886	99.40781
21500.00000	99.41305	-311.35934	99.41305
21550.00000	99.44506	-314.49507	99.44506
21600.00000	99.41027	-317.93664	99.41027
21650.00000	99.34771	-320.71800	99.34771
21700.00000	99.27353	-323.97663	99.27353
21750.00000	99.23610	-327.46940	99.23610
21800.00000	99.14000	-330.64233	99.14000
21850.00000	99.10232	-333.74197	99.10232
21900.00000	99.00380	-337.03121	99.00380
21950.00000	98.89401	-340.07284	98.89401
22000.00000	98.75052	-343.15819	98.75052
22050.00000	98.63078	-345.84093	98.63078
22100.00000	98.51464	-348.67178	98.51464
22150.00000	98.43710	-351.24873	98.43710
22200.00000	98.31821	-354.40205	98.31821
22250.00000	98.23748	-357.67364	98.23748
22300.00000	98.04873	-360.63724	98.04873
22350.00000	97.98934	-363.22316	97.98934
22400.00000	97.82502	-366.04049	97.82502
22450.00000	97.65982	-369.13200	97.65982
22500.00000	97.49414	-371.89505	97.49414
22550.00000	97.36505	-374.71010	97.36505
22600.00000	97.12316	-376.97688	97.12316
22650.00000	96.94761	-379.79163	96.94761
22700.00000	96.73808	-382.37676	96.73808
22750.00000	96.59620	-384.64517	96.59620
22800.00000	96.40060	-386.92869	96.40060
22850.00000	96.15844	-390.24901	96.15844
22900.00000	96.05703	-391.77494	96.05703
22950.00000	95.88434	-394.22448	95.88434
23000.00000	95.64413	-396.15871	95.64413
23050.00000	95.47281	-398.08003	95.47281
23100.00000	95.28021	-400.58515	95.28021
23150.00000	95.05348	-403.01131	95.05348
23200.00000	94.86643	-405.09667	94.86643
23250.00000	94.71329	-406.99231	94.71329
23300.00000	94.57507	-409.55618	94.57507
23350.00000	94.29688	-411.65535	94.29688
23400.00000	94.20627	-412.75009	94.20627
23450.00000	94.06820	-414.79217	94.06820
23500.00000	93.91490	-416.55408	93.91490
23550.00000	93.64681	-418.26815	93.64681
23600.00000	93.62697	-420.15637	93.62697
23650.00000	93.25569	-421.21508	93.25569
23700.00000	93.17579	-423.47562	93.17579
