---ACOUSTIC CALIBRATION---
Filename: C:\Data\CL0809 DATA\CL08090\RightSecondary.calib
Date: 8/9/2019 8:46:36 AM
Format: 4
Probe Tube Correction File: C:\Data\Probe Tube Calibrations\74_ProbeTube.calib
Experiment VIs: 2128
EPL_CFTS.exe V15.0.1f5 (2015)
DAQmx V15.1

Attenuation (dB): 40.000000
Min Freq (Hz): 50.000000
Max Freq (Hz): 99950.000000
Freq Step (Hz): 50.000000
Sample Rate (Hz): 200000.000000
[Smoothing]
Method=None
MA.Iterations=0
MA.Length=0
Loess.Length=0
Loess.Type=Linear
Loess.Robust=FALSE


Freq(Hz)	Mag(dB)	Phase(deg)	Unsmoothed(dB)

50.00000	99.27161	138.61213	99.27161
100.00000	72.38540	71.63560	72.38540
150.00000	68.29798	210.68865	68.29798
200.00000	68.30539	387.57106	68.30539
250.00000	68.04270	585.23180	68.04270
300.00000	75.29559	742.53678	75.29559
350.00000	76.39105	943.63395	76.39105
400.00000	77.02247	1009.08322	77.02247
450.00000	80.78907	1046.23735	80.78907
500.00000	85.31675	1167.28080	85.31675
550.00000	91.71444	1093.71805	91.71444
600.00000	89.53038	1056.18794	89.53038
650.00000	96.22294	1046.91830	96.22294
700.00000	94.82908	1046.34294	94.82908
750.00000	98.29283	1016.72104	98.29283
800.00000	99.58060	1003.45654	99.58060
850.00000	98.81926	995.55123	98.81926
900.00000	99.59858	993.36035	99.59858
950.00000	101.80592	979.14036	101.80592
1000.00000	102.34637	970.96119	102.34637
1050.00000	102.90236	954.29439	102.90236
1100.00000	102.56976	941.00317	102.56976
1150.00000	101.70609	934.48600	101.70609
1200.00000	101.06702	935.55464	101.06702
1250.00000	101.41282	936.62700	101.41282
1300.00000	102.40943	936.24199	102.40943
1350.00000	103.40721	931.15576	103.40721
1400.00000	103.94183	926.82245	103.94183
1450.00000	104.64426	923.03805	104.64426
1500.00000	105.70552	919.27704	105.70552
1550.00000	106.70589	911.23855	106.70589
1600.00000	107.70469	904.45205	107.70469
1650.00000	108.50687	897.82865	108.50687
1700.00000	112.16464	879.79226	112.16464
1750.00000	108.82436	857.97653	108.82436
1800.00000	108.16741	852.64168	108.16741
1850.00000	107.63641	845.76867	107.63641
1900.00000	107.39894	839.72185	107.39894
1950.00000	106.84529	833.80843	106.84529
2000.00000	106.20275	827.40472	106.20275
2050.00000	105.24092	824.36514	105.24092
2100.00000	104.82809	827.70249	104.82809
2150.00000	105.89003	826.24595	105.89003
2200.00000	106.26154	815.54579	106.26154
2250.00000	105.62805	807.69287	105.62805
2300.00000	105.09446	804.09691	105.09446
2350.00000	104.83448	799.14418	104.83448
2400.00000	104.65753	795.00777	104.65753
2450.00000	104.11534	788.87209	104.11534
2500.00000	103.26776	787.49522	103.26776
2550.00000	103.08927	786.01568	103.08927
2600.00000	102.88441	783.77856	102.88441
2650.00000	102.70947	782.36421	102.70947
2700.00000	102.61710	779.45641	102.61710
2750.00000	102.47721	777.02150	102.47721
2800.00000	102.38618	773.67905	102.38618
2850.00000	102.29970	770.87108	102.29970
2900.00000	102.22469	767.56849	102.22469
2950.00000	102.11673	764.36107	102.11673
3000.00000	101.95748	761.50114	101.95748
3050.00000	101.79237	757.94970	101.79237
3100.00000	101.57633	754.47452	101.57633
3150.00000	101.16804	751.71288	101.16804
3200.00000	100.91202	748.56893	100.91202
3250.00000	100.69981	746.48690	100.69981
3300.00000	100.29908	744.34642	100.29908
3350.00000	100.11205	742.79668	100.11205
3400.00000	99.76068	741.18293	99.76068
3450.00000	99.49864	740.73714	99.49864
3500.00000	99.25195	740.91668	99.25195
3550.00000	99.52318	739.89465	99.52318
3600.00000	99.19360	737.60739	99.19360
3650.00000	99.16037	738.69496	99.16037
3700.00000	99.09946	738.82413	99.09946
3750.00000	99.39910	737.75709	99.39910
3800.00000	100.08841	737.47537	100.08841
3850.00000	100.51507	729.17920	100.51507
3900.00000	100.72303	721.88416	100.72303
3950.00000	99.69855	718.71350	99.69855
4000.00000	99.01809	720.56043	99.01809
4050.00000	99.02710	722.42774	99.02710
4100.00000	99.31582	723.61728	99.31582
4150.00000	100.51430	722.32941	100.51430
4200.00000	101.11222	719.68697	101.11222
4250.00000	100.96957	709.11382	100.96957
4300.00000	100.79278	708.18142	100.79278
4350.00000	101.03780	705.71449	101.03780
4400.00000	101.24132	701.43865	101.24132
4450.00000	101.17339	696.29984	101.17339
4500.00000	101.15987	692.11985	101.15987
4550.00000	100.98369	688.66974	100.98369
4600.00000	100.95748	684.93621	100.95748
4650.00000	100.94026	681.51149	100.94026
4700.00000	100.82840	677.70079	100.82840
4750.00000	100.68909	674.43578	100.68909
4800.00000	100.61004	671.74485	100.61004
4850.00000	100.58778	668.51165	100.58778
4900.00000	100.55062	664.66635	100.55062
4950.00000	100.51605	661.05626	100.51605
5000.00000	100.45000	657.01479	100.45000
5050.00000	100.35410	652.76881	100.35410
5100.00000	100.22090	648.49300	100.22090
5150.00000	100.02634	644.10757	100.02634
5200.00000	99.78610	639.43307	99.78610
5250.00000	99.33385	634.33820	99.33385
5300.00000	98.43018	632.06415	98.43018
5350.00000	98.56677	633.85133	98.56677
5400.00000	98.73296	629.12100	98.73296
5450.00000	98.51324	624.48089	98.51324
5500.00000	98.16225	620.07441	98.16225
5550.00000	97.79474	616.86014	97.79474
5600.00000	97.47229	613.26034	97.47229
5650.00000	97.02947	610.26429	97.02947
5700.00000	96.61219	607.21957	96.61219
5750.00000	96.21545	604.42212	96.21545
5800.00000	95.78754	602.18558	95.78754
5850.00000	95.36086	599.89364	95.36086
5900.00000	94.90663	597.60392	94.90663
5950.00000	94.52825	595.79982	94.52825
6000.00000	94.12381	594.14914	94.12381
6050.00000	93.73745	592.49303	93.73745
6100.00000	93.37271	590.81923	93.37271
6150.00000	92.95610	589.19287	92.95610
6200.00000	92.57526	587.91197	92.57526
6250.00000	92.23772	586.32995	92.23772
6300.00000	91.84612	585.40590	91.84612
6350.00000	91.48184	584.35851	91.48184
6400.00000	91.06169	583.81437	91.06169
6450.00000	90.67150	582.90644	90.67150
6500.00000	90.35576	582.60579	90.35576
6550.00000	89.98580	582.59247	89.98580
6600.00000	89.65051	582.52935	89.65051
6650.00000	89.35570	582.38564	89.35570
6700.00000	89.07738	582.51265	89.07738
6750.00000	88.83912	583.72908	88.83912
6800.00000	88.73539	584.12093	88.73539
6850.00000	88.68583	585.03500	88.68583
6900.00000	88.75716	585.09882	88.75716
6950.00000	88.70807	584.59706	88.70807
7000.00000	88.78257	583.70691	88.78257
7050.00000	88.76114	582.47898	88.76114
7100.00000	88.65105	581.14786	88.65105
7150.00000	88.51255	579.53927	88.51255
7200.00000	88.36326	578.20431	88.36326
7250.00000	88.08053	577.43542	88.08053
7300.00000	87.85789	576.75684	87.85789
7350.00000	87.63595	576.99248	87.63595
7400.00000	87.40731	576.79161	87.40731
7450.00000	87.22152	577.30316	87.22152
7500.00000	87.09453	577.39229	87.09453
7550.00000	87.03327	578.41922	87.03327
7600.00000	87.10420	578.92562	87.10420
7650.00000	87.18568	580.28028	87.18568
7700.00000	87.29307	580.07570	87.29307
7750.00000	87.45367	580.72481	87.45367
7800.00000	87.62248	580.42102	87.62248
7850.00000	87.76490	579.60344	87.76490
7900.00000	87.89200	579.16927	87.89200
7950.00000	88.02733	578.09222	88.02733
8000.00000	88.12177	577.25384	88.12177
8050.00000	88.25532	575.99524	88.25532
8100.00000	88.27424	574.66190	88.27424
8150.00000	88.36096	573.83056	88.36096
8200.00000	88.53885	572.18258	88.53885
8250.00000	88.58422	571.46134	88.58422
8300.00000	88.64633	570.50864	88.64633
8350.00000	88.70195	569.13250	88.70195
8400.00000	88.81842	567.50195	88.81842
8450.00000	88.89535	566.47787	88.89535
8500.00000	88.91696	564.84279	88.91696
8550.00000	88.90878	564.09437	88.90878
8600.00000	89.07832	563.25137	89.07832
8650.00000	89.07906	561.34167	89.07906
8700.00000	89.16040	559.98433	89.16040
8750.00000	89.20809	558.74362	89.20809
8800.00000	89.33024	557.55651	89.33024
8850.00000	89.34341	555.81749	89.34341
8900.00000	89.42387	554.96633	89.42387
8950.00000	89.44547	553.66590	89.44547
9000.00000	89.56204	552.44270	89.56204
9050.00000	89.73553	551.04028	89.73553
9100.00000	89.72945	550.04201	89.72945
9150.00000	89.79954	548.08113	89.79954
9200.00000	89.91790	547.17272	89.91790
9250.00000	90.00387	545.74474	90.00387
9300.00000	90.09480	544.44613	90.09480
9350.00000	90.11837	543.08873	90.11837
9400.00000	90.23501	541.87823	90.23501
9450.00000	90.31661	540.80069	90.31661
9500.00000	90.44701	539.13011	90.44701
9550.00000	90.50139	537.56634	90.50139
9600.00000	90.63622	535.95954	90.63622
9650.00000	90.70364	534.97361	90.70364
9700.00000	90.84203	533.74286	90.84203
9750.00000	90.96732	532.26408	90.96732
9800.00000	90.97909	530.59631	90.97909
9850.00000	91.16572	529.45602	91.16572
9900.00000	91.32739	528.85748	91.32739
9950.00000	91.38113	527.19115	91.38113
10000.00000	91.56388	526.23526	91.56388
10050.00000	91.75034	525.41880	91.75034
10100.00000	92.08198	523.40584	92.08198
10150.00000	92.22514	521.61182	92.22514
10200.00000	92.39537	519.60448	92.39537
10250.00000	92.56627	517.92517	92.56627
10300.00000	92.76715	516.47851	92.76715
10350.00000	93.01191	514.75437	93.01191
10400.00000	93.18552	512.78488	93.18552
10450.00000	93.44530	510.86036	93.44530
10500.00000	93.69451	508.29486	93.69451
10550.00000	93.97319	506.43189	93.97319
10600.00000	94.26622	503.32439	94.26622
10650.00000	94.54920	500.92436	94.54920
10700.00000	94.78261	497.61345	94.78261
10750.00000	95.06021	494.75852	95.06021
10800.00000	95.30972	491.13426	95.30972
10850.00000	95.58676	487.64497	95.58676
10900.00000	95.79502	483.97748	95.79502
10950.00000	95.98127	480.13061	95.98127
11000.00000	96.20863	475.97430	96.20863
11050.00000	96.29631	472.10509	96.29631
11100.00000	96.41705	467.77260	96.41705
11150.00000	96.48799	463.22279	96.48799
11200.00000	96.52813	458.99146	96.52813
11250.00000	96.45376	454.34593	96.45376
11300.00000	96.38236	450.14083	96.38236
11350.00000	96.28929	445.48884	96.28929
11400.00000	96.10393	441.13664	96.10393
11450.00000	95.88926	436.54050	95.88926
11500.00000	95.70462	432.37993	95.70462
11550.00000	95.45486	428.24137	95.45486
11600.00000	95.18274	424.34942	95.18274
11650.00000	94.89608	420.68713	94.89608
11700.00000	94.63717	417.06060	94.63717
11750.00000	94.28456	413.96437	94.28456
11800.00000	94.03805	411.22049	94.03805
11850.00000	93.76737	408.44736	93.76737
11900.00000	93.44190	406.25103	93.44190
11950.00000	93.17562	403.95298	93.17562
12000.00000	92.89496	402.37915	92.89496
12050.00000	92.62416	401.12631	92.62416
12100.00000	92.30082	399.29054	92.30082
12150.00000	91.99363	398.15031	91.99363
12200.00000	91.72896	396.63046	91.72896
12250.00000	91.42933	395.30064	91.42933
12300.00000	91.03609	393.90659	91.03609
12350.00000	90.83434	392.87962	90.83434
12400.00000	90.50881	390.91389	90.50881
12450.00000	90.31022	389.54118	90.31022
12500.00000	90.12804	388.69586	90.12804
12550.00000	89.86063	387.30902	89.86063
12600.00000	89.86093	385.43330	89.86093
12650.00000	89.71149	384.87104	89.71149
12700.00000	89.49288	383.15849	89.49288
12750.00000	89.28985	382.56841	89.28985
12800.00000	89.21830	381.37827	89.21830
12850.00000	88.96442	380.35553	88.96442
12900.00000	88.72233	378.95840	88.72233
12950.00000	88.73481	376.51606	88.73481
13000.00000	88.49491	374.07807	88.49491
13050.00000	88.35713	372.27931	88.35713
13100.00000	88.39634	369.12115	88.39634
13150.00000	88.40412	366.99143	88.40412
13200.00000	88.57466	362.76077	88.57466
13250.00000	89.10021	357.58446	89.10021
13300.00000	89.80509	357.21599	89.80509
13350.00000	90.77954	355.29809	90.77954
13400.00000	91.79108	358.75188	91.79108
13450.00000	92.31401	367.61448	92.31401
13500.00000	91.86857	381.48482	91.86857
13550.00000	90.47872	388.02864	90.47872
13600.00000	88.73387	390.56291	88.73387
13650.00000	86.91686	387.57478	86.91686
13700.00000	85.42797	382.85874	85.42797
13750.00000	84.56282	374.44591	84.56282
13800.00000	84.16496	365.45843	84.16496
13850.00000	84.10731	356.95587	84.10731
13900.00000	84.34894	348.69013	84.34894
13950.00000	85.19139	341.95611	85.19139
14000.00000	86.39266	337.64617	86.39266
14050.00000	88.10236	338.04459	88.10236
14100.00000	89.97148	341.13545	89.97148
14150.00000	91.27385	354.08278	91.27385
14200.00000	91.17639	370.63278	91.17639
14250.00000	89.76143	382.06487	89.76143
14300.00000	88.34291	385.18527	88.34291
14350.00000	86.83256	384.29090	86.83256
14400.00000	85.88225	382.46846	85.88225
14450.00000	85.07275	378.62465	85.07275
14500.00000	84.91286	372.38247	84.91286
14550.00000	84.78239	366.44175	84.78239
14600.00000	84.75487	361.70990	84.75487
14650.00000	85.30169	357.15729	85.30169
14700.00000	86.05559	352.27433	86.05559
14750.00000	86.66388	348.85977	86.66388
14800.00000	87.58680	347.14439	87.58680
14850.00000	88.70147	348.16820	88.70147
14900.00000	89.58732	349.32847	89.58732
14950.00000	89.91187	353.68180	89.91187
15000.00000	90.27064	357.24025	90.27064
15050.00000	89.98725	361.60318	89.98725
15100.00000	89.65785	363.94322	89.65785
15150.00000	89.17512	362.75229	89.17512
15200.00000	88.84768	360.83904	88.84768
15250.00000	88.40871	358.25700	88.40871
15300.00000	88.48780	354.09573	88.48780
15350.00000	88.43304	351.58204	88.43304
15400.00000	88.90744	347.17635	88.90744
15450.00000	89.35867	343.34782	89.35867
15500.00000	89.66444	341.39522	89.66444
15550.00000	90.23089	340.04179	90.23089
15600.00000	90.77119	338.66532	90.77119
15650.00000	91.24463	337.61418	91.24463
15700.00000	91.49426	338.18057	91.49426
15750.00000	91.98028	339.18784	91.98028
15800.00000	91.91621	338.91450	91.91621
15850.00000	92.02672	339.79827	92.02672
15900.00000	91.87163	337.56664	91.87163
15950.00000	91.78066	334.62389	91.78066
16000.00000	91.93588	332.85154	91.93588
16050.00000	92.07782	329.85967	92.07782
16100.00000	92.20282	326.61568	92.20282
16150.00000	92.43678	323.91639	92.43678
16200.00000	92.83212	321.82212	92.83212
16250.00000	93.05673	319.36940	93.05673
16300.00000	93.44682	317.25560	93.44682
16350.00000	93.82922	315.68833	93.82922
16400.00000	94.09796	314.56687	94.09796
16450.00000	94.40319	313.59875	94.40319
16500.00000	94.54329	311.45432	94.54329
16550.00000	94.71638	310.00886	94.71638
16600.00000	94.80706	308.06366	94.80706
16650.00000	94.95880	305.35954	94.95880
16700.00000	95.09174	302.16446	95.09174
16750.00000	95.21298	299.62300	95.21298
16800.00000	95.34793	296.66768	95.34793
16850.00000	95.53692	293.65878	95.53692
16900.00000	95.84357	290.90041	95.84357
16950.00000	96.01647	288.42859	96.01647
17000.00000	96.19396	286.03683	96.19396
17050.00000	96.37401	284.15798	96.37401
17100.00000	96.54370	281.21202	96.54370
17150.00000	96.68793	278.96912	96.68793
17200.00000	96.79615	277.20890	96.79615
17250.00000	96.84223	274.10797	96.84223
17300.00000	97.00478	271.23393	97.00478
17350.00000	97.02623	268.12467	97.02623
17400.00000	97.15404	265.63259	97.15404
17450.00000	97.24313	262.91907	97.24313
17500.00000	97.34757	259.50571	97.34757
17550.00000	97.47673	256.64650	97.47673
17600.00000	97.58642	254.27464	97.58642
17650.00000	97.70732	251.74187	97.70732
17700.00000	97.85621	249.49693	97.85621
17750.00000	97.91138	246.91738	97.91138
17800.00000	98.02515	244.50085	98.02515
17850.00000	98.04767	241.92067	98.04767
17900.00000	98.10271	239.82642	98.10271
17950.00000	98.21268	237.16326	98.21268
18000.00000	98.26354	234.36187	98.26354
18050.00000	98.33191	231.60493	98.33191
18100.00000	98.33205	229.00448	98.33205
18150.00000	98.45559	226.22026	98.45559
18200.00000	98.53538	223.55457	98.53538
18250.00000	98.63518	220.74522	98.63518
18300.00000	98.67737	218.16672	98.67737
18350.00000	98.73222	215.57009	98.73222
18400.00000	98.78442	212.94893	98.78442
18450.00000	98.84743	210.14989	98.84743
18500.00000	98.91331	207.71929	98.91331
18550.00000	99.01130	204.87124	99.01130
18600.00000	98.97130	202.27381	98.97130
18650.00000	99.03414	199.52089	99.03414
18700.00000	99.10168	197.04358	99.10168
18750.00000	99.12307	194.24056	99.12307
18800.00000	99.12638	191.55305	99.12638
18850.00000	99.13873	188.92925	99.13873
18900.00000	99.13880	186.38410	99.13880
18950.00000	99.15299	183.74052	99.15299
19000.00000	99.10942	180.86147	99.10942
19050.00000	99.11936	178.13858	99.11936
19100.00000	99.13953	175.93062	99.13953
19150.00000	99.12167	173.58974	99.12167
19200.00000	99.12889	171.16703	99.12889
19250.00000	99.09274	168.83837	99.09274
19300.00000	99.11477	166.68236	99.11477
19350.00000	99.12080	164.02271	99.12080
19400.00000	99.07286	161.99044	99.07286
19450.00000	99.08179	159.68841	99.08179
19500.00000	99.12155	157.66001	99.12155
19550.00000	99.14535	155.53108	99.14535
19600.00000	99.15412	153.31120	99.15412
19650.00000	99.18664	151.01926	99.18664
19700.00000	99.24686	148.84583	99.24686
19750.00000	99.26210	146.51850	99.26210
19800.00000	99.35891	144.51687	99.35891
19850.00000	99.39752	142.39641	99.39752
19900.00000	99.43909	140.09912	99.43909
19950.00000	99.46884	137.81324	99.46884
20000.00000	99.51685	135.22069	99.51685
20050.00000	99.57907	133.09707	99.57907
20100.00000	99.66125	130.44403	99.66125
20150.00000	99.71185	127.84691	99.71185
20200.00000	99.75579	125.67900	99.75579
20250.00000	99.82139	123.46672	99.82139
20300.00000	99.89281	120.84198	99.89281
20350.00000	99.95703	118.34185	99.95703
20400.00000	100.00110	115.67586	100.00110
20450.00000	100.09673	113.13344	100.09673
20500.00000	100.14195	110.61110	100.14195
20550.00000	100.14789	107.72219	100.14789
20600.00000	100.22807	104.97039	100.22807
20650.00000	100.29518	102.36393	100.29518
20700.00000	100.34708	99.95879	100.34708
20750.00000	100.33244	96.93325	100.33244
20800.00000	100.30759	94.14884	100.30759
20850.00000	100.37779	90.99695	100.37779
20900.00000	100.39479	88.27093	100.39479
20950.00000	100.39151	85.48514	100.39151
21000.00000	100.46292	82.37546	100.46292
21050.00000	100.46476	79.60629	100.46476
21100.00000	100.44548	76.71142	100.44548
21150.00000	100.43630	73.78668	100.43630
21200.00000	100.42242	70.90965	100.42242
21250.00000	100.33676	68.35322	100.33676
21300.00000	100.31334	65.05770	100.31334
21350.00000	100.25944	62.20651	100.25944
21400.00000	100.25379	58.92158	100.25379
21450.00000	100.20529	56.34166	100.20529
21500.00000	100.15382	53.86793	100.15382
21550.00000	100.10373	50.89773	100.10373
21600.00000	100.02538	48.15300	100.02538
21650.00000	99.95942	45.49191	99.95942
21700.00000	99.83466	42.66211	99.83466
21750.00000	99.75644	39.67249	99.75644
21800.00000	99.66018	36.75966	99.66018
21850.00000	99.62071	34.43012	99.62071
21900.00000	99.47926	31.60698	99.47926
21950.00000	99.40752	29.27832	99.40752
22000.00000	99.19959	26.57555	99.19959
22050.00000	99.12222	24.75538	99.12222
22100.00000	99.02894	22.53689	99.02894
22150.00000	98.87761	20.36356	98.87761
22200.00000	98.80924	17.91951	98.80924
22250.00000	98.71117	15.75904	98.71117
22300.00000	98.70577	13.46336	98.70577
22350.00000	98.62932	11.02051	98.62932
22400.00000	98.49293	 8.61221	98.49293
22450.00000	98.46591	 6.52246	98.46591
22500.00000	98.34114	 4.00715	98.34114
22550.00000	98.30367	 1.78591	98.30367
22600.00000	98.15069	-0.32951	98.15069
22650.00000	98.09026	-2.49817	98.09026
22700.00000	98.03890	-4.40573	98.03890
22750.00000	97.95808	-7.08165	97.95808
22800.00000	97.91569	-9.01793	97.91569
22850.00000	97.81082	-11.14276	97.81082
22900.00000	97.79891	-12.86996	97.79891
22950.00000	97.71466	-15.19637	97.71466
23000.00000	97.63274	-17.43851	97.63274
23050.00000	97.53731	-19.45936	97.53731
23100.00000	97.46649	-22.07730	97.46649
23150.00000	97.36083	-23.91409	97.36083
23200.00000	97.27816	-26.56436	97.27816
23250.00000	97.23174	-28.94286	97.23174
23300.00000	97.23372	-31.64682	97.23372
23350.00000	97.07567	-32.96851	97.07567
23400.00000	96.99097	-35.39693	96.99097
23450.00000	96.85080	-37.47015	96.85080
23500.00000	96.83876	-39.42338	96.83876
23550.00000	96.72064	-41.06368	96.72064
23600.00000	96.59624	-43.72876	96.59624
23650.00000	96.43691	-45.58807	96.43691
23700.00000	96.47994	-47.35402	96.47994
23750.00000	96.38150	-49.62478	96.38150
