---ACOUSTIC CALIBRATION---
Filename: C:\Data\AZH DATA\AZH41\RightPrimary.calib
Date: 8/27/2019 1:48:41 PM
Format: 4
Probe Tube Correction File: C:\Data\Probe Tube Calibrations\50_ProbeTube.calib
Experiment VIs: 850
EPL_CFTS.exe V12.0.1 (2012)
DAQmx V9.6

Attenuation (dB): 40.000000
Min Freq (Hz): 50.000000
Max Freq (Hz): 49950.000000
Freq Step (Hz): 50.000000
Sample Rate (Hz): 100000.000000
[Smoothing]
Method=None
MA.Iterations=0
MA.Length=0
Loess.Length=0
Loess.Type=Linear
Loess.Robust=FALSE


Freq(Hz)	Mag(dB)	Phase(deg)	Unsmoothed(dB)

50.00000	97.92393	418.81049	97.92393
100.00000	79.99619	402.42871	79.99619
150.00000	76.34854	418.91644	76.34854
200.00000	78.47390	434.54856	78.47390
250.00000	89.52430	431.51057	89.52430
300.00000	86.12114	405.09573	86.12114
350.00000	83.52892	393.19303	83.52892
400.00000	85.77937	388.34417	85.77937
450.00000	89.21327	356.22054	89.21327
500.00000	91.38926	385.46945	91.38926
550.00000	93.02357	374.14128	93.02357
600.00000	94.22068	357.32014	94.22068
650.00000	97.05884	353.25438	97.05884
700.00000	99.58919	333.95590	99.58919
750.00000	100.93334	317.32899	100.93334
800.00000	101.72018	291.34001	101.72018
850.00000	101.15591	276.52454	101.15591
900.00000	99.75262	258.20601	99.75262
950.00000	97.61153	257.38650	97.61153
1000.00000	96.34160	258.14844	96.34160
1050.00000	93.87622	274.25067	93.87622
1100.00000	96.27489	296.40290	96.27489
1150.00000	99.06875	301.26782	99.06875
1200.00000	101.84224	298.87548	101.84224
1250.00000	103.44220	290.65410	103.44220
1300.00000	105.21138	284.92905	105.21138
1350.00000	106.43353	274.79598	106.43353
1400.00000	107.29189	269.01633	107.29189
1450.00000	108.31892	261.87138	108.31892
1500.00000	109.87252	255.74582	109.87252
1550.00000	110.22492	246.03657	110.22492
1600.00000	111.57253	236.88120	111.57253
1650.00000	112.64406	219.87765	112.64406
1700.00000	111.30667	209.80425	111.30667
1750.00000	111.06797	203.83658	111.06797
1800.00000	110.76592	198.85637	110.76592
1850.00000	110.94075	198.60432	110.94075
1900.00000	112.06202	194.36213	112.06202
1950.00000	112.74815	181.04390	112.74815
2000.00000	111.80471	168.93109	111.80471
2050.00000	110.47621	173.91732	110.47621
2100.00000	112.11853	173.45580	112.11853
2150.00000	112.93661	161.77372	112.93661
2200.00000	112.89232	152.11210	112.89232
2250.00000	112.23805	144.91189	112.23805
2300.00000	112.32630	139.40697	112.32630
2350.00000	112.11265	132.85126	112.11265
2400.00000	111.78009	127.34112	111.78009
2450.00000	111.47297	120.92400	111.47297
2500.00000	111.07445	116.10515	111.07445
2550.00000	110.60337	110.50759	110.60337
2600.00000	110.02448	106.14322	110.02448
2650.00000	109.52284	102.50005	109.52284
2700.00000	109.11853	99.17458	109.11853
2750.00000	108.32919	95.68529	108.32919
2800.00000	107.68345	92.83960	107.68345
2850.00000	107.03318	91.11854	107.03318
2900.00000	106.35040	89.31583	106.35040
2950.00000	105.54950	88.98190	105.54950
3000.00000	104.73810	88.70582	104.73810
3050.00000	103.69760	89.50188	103.69760
3100.00000	102.70581	93.01449	102.70581
3150.00000	101.56739	98.93996	101.56739
3200.00000	100.78244	110.97328	100.78244
3250.00000	100.97579	123.16363	100.97579
3300.00000	101.63144	135.83026	101.63144
3350.00000	103.05506	148.13097	103.05506
3400.00000	105.22073	156.64004	105.22073
3450.00000	107.58397	158.96909	107.58397
3500.00000	109.84030	157.33582	109.84030
3550.00000	111.64942	152.16631	111.64942
3600.00000	113.25000	147.31015	113.25000
3650.00000	114.58100	140.76386	114.58100
3700.00000	115.79410	134.57918	115.79410
3750.00000	116.97255	127.67989	116.97255
3800.00000	117.98154	119.91875	117.98154
3850.00000	118.77798	112.20165	118.77798
3900.00000	119.46769	104.93435	119.46769
3950.00000	120.24103	97.62560	120.24103
4000.00000	120.90378	90.11077	120.90378
4050.00000	121.56077	82.62220	121.56077
4100.00000	122.24627	74.92909	122.24627
4150.00000	123.08469	66.26398	123.08469
4200.00000	123.60447	56.07748	123.60447
4250.00000	124.05552	45.24085	124.05552
4300.00000	124.27622	33.87826	124.27622
4350.00000	124.23142	22.62298	124.23142
4400.00000	124.00469	12.19247	124.00469
4450.00000	123.66669	 2.56277	123.66669
4500.00000	123.29773	-6.21158	123.29773
4550.00000	122.86087	-14.59950	122.86087
4600.00000	122.41092	-22.61551	122.41092
4650.00000	121.99279	-30.41880	121.99279
4700.00000	121.47983	-38.60613	121.47983
4750.00000	120.81671	-46.95480	120.81671
4800.00000	119.93631	-55.10042	119.93631
4850.00000	118.80738	-62.08040	118.80738
4900.00000	117.51895	-66.81107	117.51895
4950.00000	116.23098	-69.20058	116.23098
5000.00000	115.11996	-69.68768	115.11996
5050.00000	114.11968	-69.53578	114.11968
5100.00000	113.00752	-65.62992	113.00752
5150.00000	113.12761	-60.84395	113.12761
5200.00000	112.64860	-56.13101	112.64860
5250.00000	114.36434	-49.67984	114.36434
5300.00000	115.66254	-60.30644	115.66254
5350.00000	115.37677	-69.56274	115.37677
5400.00000	114.83292	-74.88240	114.83292
5450.00000	114.39027	-77.88151	114.39027
5500.00000	114.08013	-80.65188	114.08013
5550.00000	113.78734	-82.84257	113.78734
5600.00000	113.55456	-84.99285	113.55456
5650.00000	113.37394	-87.14633	113.37394
5700.00000	113.16804	-89.61653	113.16804
5750.00000	113.02233	-91.57677	113.02233
5800.00000	112.86083	-93.69992	112.86083
5850.00000	112.74215	-95.83375	112.74215
5900.00000	112.64647	-97.75725	112.64647
5950.00000	112.58462	-99.79715	112.58462
6000.00000	112.55991	-101.70567	112.55991
6050.00000	112.53748	-104.06162	112.53748
6100.00000	112.53771	-106.69307	112.53771
6150.00000	112.50321	-109.46020	112.50321
6200.00000	112.43184	-112.44008	112.43184
6250.00000	112.36467	-115.20708	112.36467
6300.00000	112.29974	-118.06724	112.29974
6350.00000	112.18975	-120.84450	112.18975
6400.00000	112.07273	-123.40310	112.07273
6450.00000	112.01099	-126.07096	112.01099
6500.00000	111.90772	-128.77902	111.90772
6550.00000	111.81257	-131.31127	111.81257
6600.00000	111.73414	-133.84008	111.73414
6650.00000	111.65883	-136.41044	111.65883
6700.00000	111.59535	-139.02481	111.59535
6750.00000	111.54442	-141.63337	111.54442
6800.00000	111.49011	-144.15214	111.49011
6850.00000	111.42839	-146.75985	111.42839
6900.00000	111.39126	-149.19516	111.39126
6950.00000	111.35346	-151.99154	111.35346
7000.00000	111.32241	-154.75744	111.32241
7050.00000	111.26127	-157.53378	111.26127
7100.00000	111.24063	-160.56438	111.24063
7150.00000	111.19781	-163.34396	111.19781
7200.00000	111.13755	-166.31681	111.13755
7250.00000	111.08534	-169.42895	111.08534
7300.00000	111.05995	-172.58142	111.05995
7350.00000	110.99653	-175.66007	110.99653
7400.00000	110.94133	-178.92551	110.94133
7450.00000	110.85597	-182.30820	110.85597
7500.00000	110.76488	-185.82753	110.76488
7550.00000	110.65580	-188.82824	110.65580
7600.00000	110.52958	-192.13533	110.52958
7650.00000	110.41118	-195.51839	110.41118
7700.00000	110.30389	-198.78863	110.30389
7750.00000	110.12120	-202.09400	110.12120
7800.00000	109.97666	-205.51771	109.97666
7850.00000	109.79085	-208.65862	109.79085
7900.00000	109.61613	-211.61835	109.61613
7950.00000	109.44305	-214.83054	109.44305
8000.00000	109.26605	-217.89258	109.26605
8050.00000	109.06962	-221.26537	109.06962
8100.00000	108.89130	-224.11680	108.89130
8150.00000	108.61802	-226.67091	108.61802
8200.00000	108.41424	-229.20801	108.41424
8250.00000	108.17086	-232.04482	108.17086
8300.00000	107.97355	-234.71254	107.97355
8350.00000	107.71504	-237.18265	107.71504
8400.00000	107.44733	-240.16524	107.44733
8450.00000	107.14984	-242.98468	107.14984
8500.00000	106.87830	-245.72010	106.87830
8550.00000	106.63827	-248.24724	106.63827
8600.00000	106.38522	-251.11912	106.38522
8650.00000	106.08269	-253.75975	106.08269
8700.00000	105.85570	-256.98864	105.85570
8750.00000	105.61840	-258.36773	105.61840
8800.00000	105.42948	-260.95010	105.42948
8850.00000	105.15117	-263.11198	105.15117
8900.00000	104.94762	-264.79773	104.94762
8950.00000	104.70946	-267.18423	104.70946
9000.00000	104.36827	-269.21474	104.36827
9050.00000	104.10289	-271.56969	104.10289
9100.00000	103.84076	-273.65077	103.84076
9150.00000	103.54692	-275.90517	103.54692
9200.00000	103.32557	-278.28974	103.32557
9250.00000	103.04969	-280.63456	103.04969
9300.00000	102.97754	-283.22313	102.97754
9350.00000	102.81300	-284.99925	102.81300
9400.00000	102.56367	-286.64865	102.56367
9450.00000	102.39970	-287.78745	102.39970
9500.00000	102.30698	-288.09694	102.30698
9550.00000	102.27328	-288.72465	102.27328
9600.00000	102.22777	-290.30372	102.22777
9650.00000	101.99388	-292.18987	101.99388
9700.00000	101.75210	-293.06154	101.75210
9750.00000	101.60218	-295.60541	101.60218
9800.00000	101.34652	-297.11831	101.34652
9850.00000	101.18055	-298.73445	101.18055
9900.00000	100.90838	-300.98584	100.90838
9950.00000	100.77361	-302.35557	100.77361
10000.00000	100.68647	-304.56683	100.68647
10050.00000	100.56959	-306.03307	100.56959
10100.00000	100.44231	-307.15183	100.44231
10150.00000	100.22084	-308.86967	100.22084
10200.00000	100.04508	-310.19438	100.04508
10250.00000	99.86682	-312.02138	99.86682
10300.00000	99.77609	-313.84879	99.77609
10350.00000	99.58078	-315.45814	99.58078
10400.00000	99.35343	-317.99976	99.35343
10450.00000	99.32593	-320.58968	99.32593
10500.00000	99.29155	-322.93404	99.29155
10550.00000	99.27627	-325.23243	99.27627
10600.00000	99.21632	-327.12459	99.21632
10650.00000	99.14628	-328.75648	99.14628
10700.00000	99.09866	-331.30442	99.09866
10750.00000	99.00243	-333.41287	99.00243
10800.00000	98.80693	-335.21388	98.80693
10850.00000	98.63365	-338.40351	98.63365
10900.00000	98.46709	-340.83423	98.46709
10950.00000	98.29900	-343.16652	98.29900
11000.00000	98.11436	-345.69839	98.11436
11050.00000	97.80006	-348.04096	97.80006
11100.00000	97.62366	-350.79418	97.62366
11150.00000	97.28390	-353.11113	97.28390
11200.00000	97.08185	-355.03925	97.08185
11250.00000	96.70712	-357.40817	96.70712
11300.00000	96.33264	-359.75973	96.33264
11350.00000	95.96167	-361.49110	95.96167
11400.00000	95.55583	-363.39409	95.55583
11450.00000	95.24047	-365.75350	95.24047
11500.00000	95.03006	-366.88177	95.03006
11550.00000	94.59736	-368.38375	94.59736
11600.00000	94.40318	-370.30234	94.40318
11650.00000	94.05645	-370.68120	94.05645
11700.00000	93.84521	-371.59653	93.84521
11750.00000	93.53737	-373.04066	93.53737
11800.00000	93.29374	-374.29307	93.29374
11850.00000	93.04204	-374.49996	93.04204
11900.00000	92.57587	-376.22724	92.57587
11950.00000	92.31480	-376.80304	92.31480
12000.00000	91.95713	-377.63808	91.95713
12050.00000	91.54894	-378.08336	91.54894
12100.00000	91.28911	-379.72013	91.28911
12150.00000	90.95774	-380.73052	90.95774
12200.00000	90.71789	-381.59446	90.71789
12250.00000	90.41483	-381.47616	90.41483
12300.00000	91.34522	-383.42471	91.34522
12350.00000	89.87830	-382.11589	89.87830
12400.00000	89.54995	-381.11735	89.54995
12450.00000	89.21201	-380.53550	89.21201
12500.00000	88.91698	-380.76425	88.91698
12550.00000	88.64320	-381.04556	88.64320
12600.00000	88.36686	-381.19010	88.36686
12650.00000	88.16225	-380.29975	88.16225
12700.00000	87.99714	-381.22897	87.99714
12750.00000	87.84477	-381.13846	87.84477
12800.00000	87.64123	-379.38897	87.64123
12850.00000	87.19585	-378.03225	87.19585
12900.00000	87.00534	-377.89977	87.00534
12950.00000	86.79712	-376.87378	86.79712
13000.00000	86.54176	-376.16526	86.54176
13050.00000	86.42321	-375.00115	86.42321
13100.00000	86.21298	-374.45151	86.21298
13150.00000	86.28593	-373.63058	86.28593
13200.00000	86.24077	-370.58014	86.24077
13250.00000	86.14108	-369.76442	86.14108
13300.00000	86.24562	-366.80891	86.24562
13350.00000	86.26795	-365.07919	86.26795
13400.00000	86.24737	-364.26831	86.24737
13450.00000	86.11345	-361.93146	86.11345
13500.00000	86.48486	-361.91056	86.48486
13550.00000	86.41404	-359.37006	86.41404
13600.00000	86.51557	-358.33176	86.51557
13650.00000	86.72978	-356.70295	86.72978
13700.00000	86.79823	-355.89695	86.79823
13750.00000	86.80125	-354.71694	86.80125
13800.00000	86.94683	-355.70489	86.94683
13850.00000	87.01022	-355.48238	87.01022
13900.00000	87.22805	-354.23285	87.22805
13950.00000	87.55218	-352.50100	87.55218
14000.00000	88.04034	-350.45950	88.04034
14050.00000	88.49439	-350.19560	88.49439
14100.00000	88.72777	-348.64980	88.72777
14150.00000	88.88460	-347.38128	88.88460
14200.00000	89.35951	-348.10143	89.35951
14250.00000	90.02120	-345.68648	90.02120
14300.00000	90.19916	-345.76803	90.19916
14350.00000	90.58057	-344.35253	90.58057
14400.00000	90.74620	-344.13712	90.74620
14450.00000	91.16327	-343.16166	91.16327
14500.00000	91.46429	-344.09569	91.46429
14550.00000	92.04099	-344.60659	92.04099
14600.00000	92.41058	-345.67150	92.41058
14650.00000	92.97509	-344.18558	92.97509
14700.00000	93.28056	-347.48664	93.28056
14750.00000	93.93723	-349.52529	93.93723
14800.00000	94.33500	-349.16850	94.33500
14850.00000	94.98107	-350.26280	94.98107
14900.00000	95.50524	-351.64962	95.50524
14950.00000	96.02577	-353.22382	96.02577
15000.00000	96.58260	-355.14851	96.58260
15050.00000	96.89252	-355.56513	96.89252
15100.00000	97.39323	-356.74585	97.39323
15150.00000	97.96558	-359.40506	97.96558
15200.00000	98.33315	-360.51624	98.33315
15250.00000	98.69267	-364.14025	98.69267
15300.00000	99.42261	-367.41205	99.42261
15350.00000	99.69182	-370.84748	99.69182
15400.00000	100.02122	-372.42818	100.02122
15450.00000	100.37226	-375.74723	100.37226
15500.00000	100.79384	-378.90105	100.79384
15550.00000	101.16814	-382.43930	101.16814
15600.00000	101.43011	-385.78853	101.43011
15650.00000	101.82398	-387.53412	101.82398
15700.00000	101.93998	-392.26117	101.93998
15750.00000	102.28032	-394.88265	102.28032
15800.00000	102.50352	-397.32828	102.50352
15850.00000	102.68979	-400.39341	102.68979
15900.00000	102.68589	-404.26796	102.68589
15950.00000	103.02506	-406.83771	103.02506
16000.00000	103.22390	-409.73544	103.22390
16050.00000	103.46984	-412.24640	103.46984
16100.00000	103.47161	-415.34409	103.47161
16150.00000	103.61073	-418.23993	103.61073
16200.00000	103.79943	-421.71091	103.79943
16250.00000	103.95050	-424.07022	103.95050
16300.00000	104.29141	-426.92488	104.29141
16350.00000	104.41828	-429.44530	104.41828
16400.00000	104.56232	-431.93028	104.56232
16450.00000	104.74969	-434.41953	104.74969
16500.00000	104.80650	-436.73220	104.80650
16550.00000	105.11228	-440.61417	105.11228
16600.00000	105.33859	-443.37017	105.33859
16650.00000	105.44897	-445.94880	105.44897
16700.00000	105.62974	-448.54125	105.62974
16750.00000	105.72730	-451.97822	105.72730
16800.00000	105.93505	-455.18473	105.93505
16850.00000	106.15527	-458.23181	106.15527
16900.00000	106.33114	-461.20456	106.33114
16950.00000	106.46758	-464.26137	106.46758
17000.00000	106.45506	-467.60388	106.45506
17050.00000	106.69483	-469.84940	106.69483
17100.00000	106.61490	-471.89849	106.61490
17150.00000	107.01346	-475.94156	107.01346
17200.00000	107.14153	-479.02881	107.14153
17250.00000	107.16907	-482.66865	107.16907
17300.00000	107.38579	-485.89029	107.38579
17350.00000	107.39826	-488.65072	107.39826
17400.00000	107.57549	-491.94952	107.57549
17450.00000	107.61534	-495.73969	107.61534
17500.00000	107.74168	-498.81708	107.74168
17550.00000	107.82702	-502.19479	107.82702
17600.00000	107.98854	-505.23808	107.98854
17650.00000	108.03149	-509.31166	108.03149
17700.00000	107.94273	-513.22545	107.94273
17750.00000	108.24584	-515.65381	108.24584
17800.00000	108.14993	-519.82613	108.14993
17850.00000	108.21946	-522.88747	108.21946
17900.00000	108.21043	-526.46333	108.21043
17950.00000	108.28076	-530.20934	108.28076
18000.00000	108.29322	-534.21959	108.29322
18050.00000	108.37226	-536.93368	108.37226
18100.00000	108.26223	-541.00395	108.26223
18150.00000	108.25557	-543.74720	108.25557
18200.00000	108.14510	-547.50487	108.14510
18250.00000	108.17410	-550.25718	108.17410
18300.00000	108.27436	-553.72175	108.27436
18350.00000	108.13641	-556.48797	108.13641
18400.00000	108.05427	-559.96169	108.05427
18450.00000	107.95382	-564.21640	107.95382
18500.00000	107.92623	-567.32432	107.92623
18550.00000	107.86657	-569.96505	107.86657
18600.00000	107.87948	-573.26544	107.87948
18650.00000	107.69105	-576.23285	107.69105
18700.00000	107.61129	-579.71700	107.61129
18750.00000	107.56357	-582.63504	107.56357
18800.00000	107.59469	-584.99663	107.59469
18850.00000	107.39347	-588.24445	107.39347
18900.00000	107.27443	-590.39872	107.27443
18950.00000	107.23354	-594.44819	107.23354
19000.00000	106.99968	-596.78768	106.99968
19050.00000	107.06782	-599.75195	107.06782
19100.00000	106.92156	-602.25723	106.92156
19150.00000	106.97401	-604.90153	106.97401
19200.00000	106.86587	-607.11833	106.86587
19250.00000	106.73862	-610.89598	106.73862
19300.00000	106.62746	-612.98435	106.62746
19350.00000	106.56413	-615.54441	106.56413
19400.00000	106.44676	-618.22245	106.44676
19450.00000	106.47739	-620.24419	106.47739
19500.00000	106.34522	-624.16546	106.34522
19550.00000	106.27562	-626.20745	106.27562
19600.00000	106.24961	-629.20551	106.24961
19650.00000	106.10995	-631.54351	106.10995
19700.00000	105.94736	-634.11745	105.94736
19750.00000	105.84234	-636.30749	105.84234
19800.00000	105.85543	-639.65346	105.85543
19850.00000	105.79559	-642.08966	105.79559
19900.00000	105.65437	-645.43513	105.65437
19950.00000	105.54992	-647.89138	105.54992
20000.00000	105.43962	-650.58969	105.43962
20050.00000	105.38087	-653.18908	105.38087
20100.00000	105.13121	-656.22475	105.13121
20150.00000	105.11982	-657.60877	105.11982
20200.00000	104.97557	-660.73715	104.97557
20250.00000	104.76890	-663.15775	104.76890
20300.00000	104.59129	-665.67844	104.59129
20350.00000	104.50790	-668.31804	104.50790
20400.00000	104.28962	-669.94718	104.28962
20450.00000	104.06331	-672.26806	104.06331
20500.00000	103.96816	-674.72542	103.96816
20550.00000	103.58751	-676.02526	103.58751
20600.00000	103.48296	-677.82988	103.48296
20650.00000	103.32732	-679.63846	103.32732
20700.00000	103.03866	-681.02849	103.03866
20750.00000	102.98256	-682.60904	102.98256
20800.00000	102.76979	-683.52321	102.76979
20850.00000	102.67682	-684.97166	102.67682
20900.00000	102.49557	-685.88984	102.49557
20950.00000	102.34598	-686.50237	102.34598
21000.00000	102.27190	-687.07344	102.27190
21050.00000	102.34201	-687.50219	102.34201
21100.00000	102.29159	-688.07265	102.29159
21150.00000	102.35919	-688.86494	102.35919
21200.00000	102.44968	-689.50109	102.44968
21250.00000	102.52644	-691.47759	102.52644
21300.00000	102.63903	-692.47649	102.63903
21350.00000	102.74783	-693.37435	102.74783
21400.00000	102.83040	-695.34198	102.83040
21450.00000	102.96400	-697.06054	102.96400
21500.00000	103.05371	-699.22302	103.05371
21550.00000	103.06640	-700.90149	103.06640
21600.00000	103.18089	-703.15211	103.18089
21650.00000	103.22366	-705.63605	103.22366
21700.00000	103.22190	-707.29318	103.22190
21750.00000	103.28362	-709.70057	103.28362
21800.00000	103.30887	-711.89794	103.30887
21850.00000	103.22781	-713.97853	103.22781
21900.00000	103.28129	-716.71824	103.28129
21950.00000	103.24924	-717.85809	103.24924
22000.00000	103.29998	-719.85348	103.29998
22050.00000	103.21730	-721.45102	103.21730
22100.00000	103.21811	-723.60131	103.21811
22150.00000	103.21945	-725.33843	103.21945
22200.00000	103.28593	-727.40725	103.28593
22250.00000	103.21800	-728.58420	103.21800
22300.00000	103.11343	-730.67459	103.11343
22350.00000	103.28629	-732.59051	103.28629
22400.00000	103.28106	-734.57597	103.28106
22450.00000	103.25568	-736.35500	103.25568
22500.00000	103.22455	-736.86305	103.22455
22550.00000	103.21781	-739.41291	103.21781
22600.00000	103.24559	-742.02336	103.24559
22650.00000	103.25663	-744.20174	103.25663
22700.00000	103.27659	-745.59453	103.27659
22750.00000	103.24424	-745.96232	103.24424
