---ACOUSTIC CALIBRATION---
Filename: C:\Data\AZH DATA\AZH41\RightPrimary.calib
Date: 8/27/2019 2:02:36 PM
Format: 4
Probe Tube Correction File: C:\Data\Probe Tube Calibrations\50_ProbeTube.calib
Experiment VIs: 850
EPL_CFTS.exe V12.0.1 (2012)
DAQmx V9.6

Attenuation (dB): 40.000000
Min Freq (Hz): 50.000000
Max Freq (Hz): 49950.000000
Freq Step (Hz): 50.000000
Sample Rate (Hz): 100000.000000
[Smoothing]
Method=None
MA.Iterations=0
MA.Length=0
Loess.Length=0
Loess.Type=Linear
Loess.Robust=FALSE


Freq(Hz)	Mag(dB)	Phase(deg)	Unsmoothed(dB)

50.00000	102.46694	574.05163	102.46694
100.00000	65.08965	390.94213	65.08965
150.00000	76.79097	494.91035	76.79097
200.00000	82.52063	469.36371	82.52063
250.00000	85.72400	445.67769	85.72400
300.00000	86.45435	380.51724	86.45435
350.00000	84.03096	374.98624	84.03096
400.00000	89.65730	380.72214	89.65730
450.00000	89.72349	366.86323	89.72349
500.00000	92.56711	380.99495	92.56711
550.00000	93.46200	374.60008	93.46200
600.00000	98.00237	363.63342	98.00237
650.00000	98.98328	346.77695	98.98328
700.00000	101.29105	334.56081	101.29105
750.00000	102.90125	316.71146	102.90125
800.00000	103.54808	295.02409	103.54808
850.00000	102.78831	277.62083	102.78831
900.00000	101.61455	257.60250	101.61455
950.00000	99.39087	257.02750	99.39087
1000.00000	97.93439	257.05980	97.93439
1050.00000	96.10732	271.29699	96.10732
1100.00000	97.41576	292.42790	97.41576
1150.00000	99.92356	298.00728	99.92356
1200.00000	102.52106	299.41719	102.52106
1250.00000	104.64740	291.37799	104.64740
1300.00000	106.22322	285.20777	106.22322
1350.00000	107.69679	276.83551	107.69679
1400.00000	108.72259	267.84704	108.72259
1450.00000	109.56021	262.25942	109.56021
1500.00000	110.19990	255.41773	110.19990
1550.00000	111.45710	247.33684	111.45710
1600.00000	113.03230	238.03149	113.03230
1650.00000	114.05916	221.55801	114.05916
1700.00000	112.94826	210.97312	112.94826
1750.00000	112.76140	205.47721	112.76140
1800.00000	112.67894	199.92988	112.67894
1850.00000	112.74628	197.87787	112.74628
1900.00000	113.81515	193.73152	113.81515
1950.00000	114.48496	180.76890	114.48496
2000.00000	113.63769	168.09108	113.63769
2050.00000	112.11518	170.42492	112.11518
2100.00000	113.56999	172.32961	113.56999
2150.00000	114.50656	161.77397	114.50656
2200.00000	114.47658	151.72172	114.47658
2250.00000	113.98558	144.35737	113.98558
2300.00000	114.00284	138.40882	114.00284
2350.00000	113.79508	132.09391	113.79508
2400.00000	113.59536	125.92038	113.59536
2450.00000	113.20360	119.73004	113.20360
2500.00000	112.88608	114.27104	112.88608
2550.00000	112.39818	109.17909	112.39818
2600.00000	111.84928	104.92550	111.84928
2650.00000	111.34768	101.06078	111.34768
2700.00000	110.84783	96.22300	110.84783
2750.00000	110.26572	93.83746	110.26572
2800.00000	109.63384	91.23115	109.63384
2850.00000	109.02460	89.14004	109.02460
2900.00000	108.42605	86.91627	108.42605
2950.00000	107.72602	86.00065	107.72602
3000.00000	107.05962	84.96894	107.05962
3050.00000	106.25559	85.01458	106.25559
3100.00000	105.60299	86.73843	105.60299
3150.00000	104.51346	87.85911	104.51346
3200.00000	103.48617	94.40388	103.48617
3250.00000	102.86837	104.13035	102.86837
3300.00000	102.73024	115.15113	102.73024
3350.00000	103.15236	128.52652	103.15236
3400.00000	104.66259	142.47202	104.66259
3450.00000	106.97790	149.10267	106.97790
3500.00000	109.40224	150.67039	109.40224
3550.00000	111.37856	147.34135	111.37856
3600.00000	113.13339	143.47953	113.13339
3650.00000	114.56044	137.91540	114.56044
3700.00000	115.82933	132.44046	115.82933
3750.00000	117.05550	126.21143	117.05550
3800.00000	118.17514	119.23578	118.17514
3850.00000	119.06277	112.11442	119.06277
3900.00000	119.88633	105.54798	119.88633
3950.00000	120.73550	98.30853	120.73550
4000.00000	121.49721	90.93944	121.49721
4050.00000	122.22733	83.62082	122.22733
4100.00000	122.98900	76.01958	122.98900
4150.00000	123.91474	67.54375	123.91474
4200.00000	124.54240	57.50263	124.54240
4250.00000	125.12121	46.44897	125.12121
4300.00000	125.45320	34.66550	125.45320
4350.00000	125.49922	22.75202	125.49922
4400.00000	125.30811	11.62339	125.30811
4450.00000	124.97435	 1.26328	124.97435
4500.00000	124.52253	-8.00349	124.52253
4550.00000	124.10396	-16.94739	124.10396
4600.00000	123.60469	-25.17354	123.60469
4650.00000	123.12571	-32.95939	123.12571
4700.00000	122.59421	-41.08168	122.59421
4750.00000	121.93855	-49.42174	121.93855
4800.00000	121.12336	-57.66864	121.12336
4850.00000	120.00708	-64.98451	120.00708
4900.00000	118.70626	-70.55787	118.70626
4950.00000	117.37515	-73.43051	117.37515
5000.00000	116.14079	-73.98159	116.14079
5050.00000	115.11819	-73.87743	115.11819
5100.00000	113.97114	-70.85012	113.97114
5150.00000	113.83258	-64.97834	113.83258
5200.00000	113.21525	-62.60070	113.21525
5250.00000	114.18083	-50.43425	114.18083
5300.00000	116.48865	-56.79852	116.48865
5350.00000	116.69593	-69.27675	116.69593
5400.00000	116.17413	-76.56218	116.17413
5450.00000	115.64411	-80.71916	115.64411
5500.00000	115.23517	-83.74982	115.23517
5550.00000	114.94987	-86.24086	114.94987
5600.00000	114.69123	-88.82765	114.69123
5650.00000	114.48909	-91.11889	114.48909
5700.00000	114.27918	-93.58811	114.27918
5750.00000	114.13128	-96.06956	114.13128
5800.00000	113.97109	-98.57576	113.97109
5850.00000	113.82196	-101.10145	113.82196
5900.00000	113.69031	-103.43359	113.69031
5950.00000	113.56324	-105.74428	113.56324
6000.00000	113.46649	-107.90458	113.46649
6050.00000	113.37492	-110.25897	113.37492
6100.00000	113.33098	-112.78432	113.33098
6150.00000	113.27231	-115.48317	113.27231
6200.00000	113.21390	-118.30982	113.21390
6250.00000	113.14285	-121.33906	113.14285
6300.00000	113.06126	-124.47156	113.06126
6350.00000	112.92764	-127.52007	112.92764
6400.00000	112.79367	-130.42431	112.79367
6450.00000	112.68697	-133.45089	112.68697
6500.00000	112.55298	-136.23237	112.55298
6550.00000	112.40288	-139.18428	112.40288
6600.00000	112.26297	-141.95781	112.26297
6650.00000	112.14040	-144.84332	112.14040
6700.00000	112.02673	-147.84084	112.02673
6750.00000	111.89270	-150.66338	111.89270
6800.00000	111.78285	-153.47979	111.78285
6850.00000	111.64923	-156.40396	111.64923
6900.00000	111.54204	-159.43223	111.54204
6950.00000	111.36776	-162.25737	111.36776
7000.00000	111.24238	-165.24430	111.24238
7050.00000	111.06888	-168.38092	111.06888
7100.00000	110.92580	-171.59822	110.92580
7150.00000	110.74716	-174.45593	110.74716
7200.00000	110.55046	-177.72989	110.55046
7250.00000	110.33015	-181.00667	110.33015
7300.00000	110.14490	-184.06061	110.14490
7350.00000	109.86818	-187.12526	109.86818
7400.00000	109.60857	-190.30367	109.60857
7450.00000	109.30960	-193.29188	109.30960
7500.00000	109.00159	-195.81073	109.00159
7550.00000	108.70613	-198.72656	108.70613
7600.00000	108.35056	-201.28531	108.35056
7650.00000	108.01062	-203.73249	108.01062
7700.00000	107.72221	-205.96029	107.72221
7750.00000	107.31593	-208.08124	107.31593
7800.00000	106.97243	-209.91898	106.97243
7850.00000	106.63611	-211.53174	106.63611
7900.00000	106.34850	-212.86367	106.34850
7950.00000	106.05093	-214.18259	106.05093
8000.00000	105.79052	-215.30731	105.79052
8050.00000	105.56579	-216.48781	105.56579
8100.00000	105.31663	-217.24850	105.31663
8150.00000	105.13252	-217.42832	105.13252
8200.00000	104.95369	-217.88005	104.95369
8250.00000	104.77867	-218.58715	104.77867
8300.00000	104.61134	-218.86357	104.61134
8350.00000	104.45929	-219.08579	104.45929
8400.00000	104.30991	-220.11731	104.30991
8450.00000	104.12490	-220.97272	104.12490
8500.00000	104.00157	-222.11788	104.00157
8550.00000	103.93562	-223.26236	103.93562
8600.00000	103.86801	-224.93316	103.86801
8650.00000	103.84973	-226.47010	103.84973
8700.00000	103.94728	-228.56456	103.94728
8750.00000	103.94282	-229.33651	103.94282
8800.00000	104.05258	-231.06342	104.05258
8850.00000	104.11675	-232.27165	104.11675
8900.00000	104.22450	-233.20173	104.22450
8950.00000	104.31642	-234.59276	104.31642
9000.00000	104.27408	-235.84479	104.27408
9050.00000	104.29196	-237.49351	104.29196
9100.00000	104.22983	-239.06761	104.22983
9150.00000	104.15696	-240.97896	104.15696
9200.00000	104.13893	-243.27207	104.13893
9250.00000	104.06168	-245.83830	104.06168
9300.00000	104.13323	-248.72314	104.13323
9350.00000	104.19726	-251.53545	104.19726
9400.00000	104.21929	-253.88743	104.21929
9450.00000	104.32236	-256.14381	104.32236
9500.00000	104.45607	-257.60907	104.45607
9550.00000	104.65138	-258.67250	104.65138
9600.00000	104.90790	-261.20724	104.90790
9650.00000	104.93342	-263.77699	104.93342
9700.00000	104.88551	-265.67203	104.88551
9750.00000	104.87755	-268.79271	104.87755
9800.00000	104.78019	-271.23656	104.78019
9850.00000	104.71635	-274.01396	104.71635
9900.00000	104.53471	-277.51838	104.53471
9950.00000	104.53380	-280.32391	104.53380
10000.00000	104.53791	-283.81883	104.53791
10050.00000	104.51498	-286.93345	104.51498
10100.00000	104.45088	-289.69811	104.45088
10150.00000	104.30037	-293.10643	104.30037
10200.00000	104.18813	-295.81149	104.18813
10250.00000	103.98843	-298.84811	103.98843
10300.00000	103.87047	-301.84237	103.87047
10350.00000	103.64942	-304.90355	103.64942
10400.00000	103.38526	-308.55121	103.38526
10450.00000	103.25478	-312.27452	103.25478
10500.00000	103.14294	-315.67290	103.14294
10550.00000	103.01160	-318.86593	103.01160
10600.00000	102.84370	-321.59759	102.84370
10650.00000	102.64237	-323.82641	102.64237
10700.00000	102.44759	-327.14816	102.44759
10750.00000	102.25583	-329.77201	102.25583
10800.00000	101.92617	-331.97023	101.92617
10850.00000	101.61827	-335.36445	101.61827
10900.00000	101.33728	-338.02737	101.33728
10950.00000	101.04338	-340.57234	101.04338
11000.00000	100.75217	-343.28400	100.75217
11050.00000	100.32649	-345.66999	100.32649
11100.00000	100.03813	-348.33532	100.03813
11150.00000	99.60397	-350.27941	99.60397
11200.00000	99.31509	-351.90619	99.31509
11250.00000	98.85514	-354.10942	98.85514
11300.00000	98.39732	-355.90099	98.39732
11350.00000	97.97958	-357.20612	97.97958
11400.00000	97.49107	-358.74867	97.49107
11450.00000	97.12205	-360.58345	97.12205
11500.00000	96.88636	-361.30250	96.88636
11550.00000	96.44357	-362.13840	96.44357
11600.00000	96.21625	-363.63851	96.21625
11650.00000	95.87364	-363.26664	95.87364
11700.00000	95.61438	-363.70887	95.61438
11750.00000	95.37743	-364.37527	95.37743
11800.00000	95.10101	-365.41622	95.10101
11850.00000	94.92308	-365.33876	94.92308
11900.00000	94.50972	-366.44614	94.50972
11950.00000	94.27206	-366.53820	94.27206
12000.00000	94.04706	-366.61389	94.04706
12050.00000	93.66060	-366.62766	93.66060
12100.00000	93.46823	-367.76927	93.46823
12150.00000	93.17261	-368.09610	93.17261
12200.00000	92.92883	-368.71337	92.92883
12250.00000	92.69369	-368.77981	92.69369
12300.00000	93.59225	-369.33148	93.59225
12350.00000	92.30219	-369.27083	92.30219
12400.00000	92.11299	-368.15481	92.11299
12450.00000	91.95389	-367.09333	91.95389
12500.00000	91.79638	-367.01087	91.79638
12550.00000	91.64101	-366.71595	91.64101
12600.00000	91.41252	-366.69641	91.41252
12650.00000	91.37560	-366.54535	91.37560
12700.00000	91.21969	-366.48992	91.21969
12750.00000	91.16892	-366.77390	91.16892
12800.00000	91.06683	-365.92463	91.06683
12850.00000	90.68161	-365.12527	90.68161
12900.00000	90.62994	-365.33788	90.62994
12950.00000	90.65290	-364.75684	90.65290
13000.00000	90.53084	-364.61805	90.53084
13050.00000	90.55553	-363.23444	90.55553
13100.00000	90.43382	-362.92195	90.43382
13150.00000	90.59183	-363.03586	90.59183
13200.00000	90.62880	-360.80228	90.62880
13250.00000	90.64733	-360.51755	90.64733
13300.00000	90.62117	-357.30533	90.62117
13350.00000	90.69184	-357.43196	90.69184
13400.00000	90.90091	-357.34998	90.90091
13450.00000	90.86824	-355.66496	90.86824
13500.00000	91.20311	-354.80166	91.20311
13550.00000	91.11621	-354.27148	91.11621
13600.00000	91.37930	-353.16455	91.37930
13650.00000	91.56738	-352.44684	91.56738
13700.00000	91.60448	-352.52414	91.60448
13750.00000	91.67302	-352.24867	91.67302
13800.00000	91.85555	-353.65102	91.85555
13850.00000	92.12129	-354.91084	92.12129
13900.00000	92.32304	-353.76122	92.32304
13950.00000	92.63392	-353.29751	92.63392
14000.00000	93.14100	-351.62606	93.14100
14050.00000	93.41396	-352.17244	93.41396
14100.00000	93.47536	-351.67248	93.47536
14150.00000	93.96243	-352.24931	93.96243
14200.00000	94.39728	-352.54923	94.39728
14250.00000	95.06043	-351.43677	95.06043
14300.00000	95.40026	-352.46744	95.40026
14350.00000	95.71333	-351.48714	95.71333
14400.00000	95.77561	-352.48115	95.77561
14450.00000	96.10511	-352.76272	96.10511
14500.00000	96.42949	-354.61698	96.42949
14550.00000	96.96691	-355.38159	96.96691
14600.00000	97.21166	-357.67263	97.21166
14650.00000	97.79567	-357.65123	97.79567
14700.00000	98.13256	-363.11457	98.13256
14750.00000	98.61267	-364.17255	98.61267
14800.00000	98.89560	-365.19862	98.89560
14850.00000	99.42304	-366.59378	99.42304
14900.00000	99.85337	-369.02301	99.85337
14950.00000	100.19202	-371.46334	100.19202
15000.00000	100.51478	-374.19986	100.51478
15050.00000	100.76160	-375.34920	100.76160
15100.00000	101.09215	-377.36152	101.09215
15150.00000	101.61444	-380.41225	101.61444
15200.00000	101.79629	-381.56757	101.79629
15250.00000	101.93206	-384.95601	101.93206
15300.00000	102.38634	-388.60101	102.38634
15350.00000	102.54456	-391.95801	102.54456
15400.00000	102.75328	-393.78023	102.75328
15450.00000	102.97193	-397.02135	102.97193
15500.00000	103.28781	-399.92650	103.28781
15550.00000	103.51926	-403.04504	103.51926
15600.00000	103.68213	-406.00554	103.68213
15650.00000	103.97910	-407.14594	103.97910
15700.00000	103.95355	-411.53934	103.95355
15750.00000	104.22859	-413.95526	104.22859
15800.00000	104.40437	-415.91959	104.40437
15850.00000	104.55946	-418.51064	104.55946
15900.00000	104.69281	-421.77403	104.69281
15950.00000	104.82622	-424.35013	104.82622
16000.00000	104.95808	-426.81350	104.95808
16050.00000	105.18216	-429.35676	105.18216
16100.00000	105.17231	-432.48267	105.17231
16150.00000	105.27419	-435.26738	105.27419
16200.00000	105.44867	-438.49688	105.44867
16250.00000	105.58401	-440.60007	105.58401
16300.00000	105.85801	-443.45475	105.85801
16350.00000	105.92904	-446.08216	105.92904
16400.00000	106.04241	-448.49773	106.04241
16450.00000	106.15722	-450.91097	106.15722
16500.00000	106.22929	-453.50955	106.22929
16550.00000	106.43799	-456.83506	106.43799
16600.00000	106.58268	-459.32230	106.58268
16650.00000	106.63094	-461.84207	106.63094
16700.00000	106.81576	-464.14418	106.81576
16750.00000	106.85232	-467.38717	106.85232
16800.00000	107.00751	-470.41937	107.00751
16850.00000	107.21928	-473.06425	107.21928
16900.00000	107.33744	-476.00356	107.33744
16950.00000	107.47460	-478.75598	107.47460
17000.00000	107.48170	-481.47598	107.48170
17050.00000	107.63238	-483.97668	107.63238
17100.00000	107.70310	-485.93106	107.70310
17150.00000	107.92305	-489.54919	107.92305
17200.00000	108.01825	-492.38481	108.01825
17250.00000	108.07084	-495.82442	108.07084
17300.00000	108.25660	-498.66834	108.25660
17350.00000	108.23499	-501.30225	108.23499
17400.00000	108.41594	-504.48038	108.41594
17450.00000	108.45130	-508.04310	108.45130
17500.00000	108.57648	-510.99931	108.57648
17550.00000	108.66132	-514.15807	108.66132
17600.00000	108.82942	-516.95042	108.82942
17650.00000	108.86941	-520.95790	108.86941
17700.00000	108.87165	-524.69123	108.87165
17750.00000	109.08793	-527.09720	109.08793
17800.00000	109.01003	-531.05023	109.01003
17850.00000	109.06388	-534.06426	109.06388
17900.00000	109.07105	-537.58441	109.07105
17950.00000	109.16193	-541.31478	109.16193
18000.00000	109.16597	-545.30669	109.16597
18050.00000	109.27112	-548.17792	109.27112
18100.00000	109.17984	-552.14412	109.17984
18150.00000	109.15620	-555.04611	109.15620
18200.00000	109.05047	-559.19249	109.05047
18250.00000	109.08438	-561.71030	109.08438
18300.00000	109.02377	-565.20848	109.02377
18350.00000	109.01052	-568.26279	109.01052
18400.00000	108.87708	-572.02147	108.87708
18450.00000	108.76616	-576.33010	108.76616
18500.00000	108.70412	-579.42960	108.70412
18550.00000	108.59785	-582.04514	108.59785
18600.00000	108.59624	-585.70679	108.59624
18650.00000	108.33612	-588.43406	108.33612
18700.00000	108.21726	-592.00898	108.21726
18750.00000	108.17301	-594.88716	108.17301
18800.00000	108.15355	-597.21283	108.15355
18850.00000	107.91826	-600.24071	107.91826
18900.00000	107.70867	-602.94898	107.70867
18950.00000	107.66895	-606.24002	107.66895
19000.00000	107.40453	-608.53885	107.40453
19050.00000	107.43502	-611.25051	107.43502
19100.00000	107.26176	-613.43784	107.26176
19150.00000	107.26623	-615.90098	107.26623
19200.00000	107.12599	-618.28250	107.12599
19250.00000	107.01753	-621.72604	107.01753
19300.00000	106.89006	-623.52145	106.89006
19350.00000	106.80967	-626.02586	106.80967
19400.00000	106.68212	-628.19846	106.68212
19450.00000	106.68694	-630.21262	106.68694
19500.00000	106.50679	-633.78681	106.50679
19550.00000	106.46293	-635.90560	106.46293
19600.00000	106.45727	-638.88761	106.45727
19650.00000	106.31819	-640.75632	106.31819
19700.00000	106.13739	-643.45517	106.13739
19750.00000	106.04742	-645.44142	106.04742
19800.00000	106.06786	-648.66810	106.06786
19850.00000	105.98647	-650.98013	105.98647
19900.00000	105.85703	-654.07609	105.85703
19950.00000	105.73880	-656.58918	105.73880
20000.00000	105.66228	-659.07951	105.66228
20050.00000	105.58100	-661.76434	105.58100
20100.00000	105.44078	-664.31162	105.44078
20150.00000	105.33866	-666.00690	105.33866
20200.00000	105.18984	-669.29970	105.18984
20250.00000	105.03167	-671.80474	105.03167
20300.00000	104.81953	-674.34687	104.81953
20350.00000	104.75695	-676.93381	104.75695
20400.00000	104.54225	-678.64920	104.54225
20450.00000	104.30786	-681.16040	104.30786
20500.00000	104.19411	-683.82105	104.19411
20550.00000	103.80984	-685.19321	103.80984
20600.00000	103.71256	-687.22206	103.71256
20650.00000	103.52696	-689.07445	103.52696
20700.00000	103.25846	-690.86830	103.25846
20750.00000	103.13245	-692.57422	103.13245
20800.00000	102.87838	-693.66919	102.87838
20850.00000	102.75445	-695.24885	102.75445
20900.00000	102.50891	-696.48019	102.50891
20950.00000	102.31276	-697.12632	102.31276
21000.00000	102.15090	-697.98414	102.15090
21050.00000	102.16001	-698.39802	102.16001
21100.00000	102.02651	-698.76261	102.02651
21150.00000	102.01693	-699.75519	102.01693
21200.00000	102.01572	-700.14445	102.01572
21250.00000	102.02311	-701.91445	102.02311
21300.00000	102.10921	-702.09944	102.10921
21350.00000	102.11991	-703.10253	102.11991
21400.00000	102.13475	-704.64861	102.13475
21450.00000	102.21616	-705.94200	102.21616
21500.00000	102.28787	-707.86057	102.28787
21550.00000	102.25180	-708.93918	102.25180
21600.00000	102.35368	-710.85091	102.35368
21650.00000	102.35543	-712.75287	102.35543
21700.00000	102.38493	-714.26120	102.38493
21750.00000	102.42864	-716.12390	102.42864
21800.00000	102.43844	-717.86743	102.43844
21850.00000	102.37160	-719.68779	102.37160
21900.00000	102.42229	-721.76866	102.42229
21950.00000	102.39400	-723.12089	102.39400
22000.00000	102.45771	-724.89118	102.45771
22050.00000	102.42619	-726.13078	102.42619
22100.00000	102.39345	-728.08540	102.39345
22150.00000	102.39833	-729.83911	102.39833
22200.00000	102.46852	-731.27509	102.46852
22250.00000	102.45126	-732.61063	102.45126
22300.00000	102.33915	-734.30655	102.33915
22350.00000	102.46962	-736.51391	102.46962
22400.00000	102.54937	-738.27673	102.54937
22450.00000	102.49035	-739.95214	102.49035
22500.00000	102.47825	-741.13334	102.47825
22550.00000	102.49067	-742.94773	102.49067
22600.00000	102.50504	-745.61551	102.50504
22650.00000	102.53611	-747.46974	102.53611
