---ACOUSTIC CALIBRATION---
Filename: C:\Data\AZH DATA\AZH41\RightSecondary.calib
Date: 8/27/2019 2:02:50 PM
Format: 4
Probe Tube Correction File: C:\Data\Probe Tube Calibrations\50_ProbeTube.calib
Experiment VIs: 850
EPL_CFTS.exe V12.0.1 (2012)
DAQmx V9.6

Attenuation (dB): 40.000000
Min Freq (Hz): 50.000000
Max Freq (Hz): 49950.000000
Freq Step (Hz): 50.000000
Sample Rate (Hz): 100000.000000
[Smoothing]
Method=None
MA.Iterations=0
MA.Length=0
Loess.Length=0
Loess.Type=Linear
Loess.Robust=FALSE


Freq(Hz)	Mag(dB)	Phase(deg)	Unsmoothed(dB)

50.00000	109.87972	474.12153	109.87972
100.00000	89.28136	538.55470	89.28136
150.00000	83.78749	507.53165	83.78749
200.00000	84.97969	435.84612	84.97969
250.00000	93.10102	426.00934	93.10102
300.00000	93.58015	382.95817	93.58015
350.00000	88.16939	325.27208	88.16939
400.00000	88.16316	301.43303	88.16316
450.00000	84.98068	297.27716	84.98068
500.00000	90.38861	316.00295	90.38861
550.00000	89.12296	324.22731	89.12296
600.00000	92.76738	327.89340	92.76738
650.00000	94.33757	325.72660	94.33757
700.00000	96.91477	318.89403	96.91477
750.00000	99.36573	315.79263	99.36573
800.00000	101.91072	305.20385	101.91072
850.00000	104.21755	295.24793	104.21755
900.00000	105.77327	280.11643	105.77327
950.00000	107.13684	263.87814	107.13684
1000.00000	107.22317	245.90483	107.22317
1050.00000	106.67535	236.68306	106.67535
1100.00000	107.02663	225.81444	107.02663
1150.00000	106.15753	215.82606	106.15753
1200.00000	106.00342	213.50476	106.00342
1250.00000	106.08625	203.82300	106.08625
1300.00000	105.35358	197.73647	105.35358
1350.00000	104.66118	192.34509	104.66118
1400.00000	104.00661	191.85733	104.00661
1450.00000	104.07500	191.81559	104.07500
1500.00000	104.34087	189.85490	104.34087
1550.00000	104.07015	189.38147	104.07015
1600.00000	105.09507	185.87032	105.09507
1650.00000	105.91355	177.60057	105.91355
1700.00000	104.70278	173.87085	104.70278
1750.00000	104.65616	172.57104	104.65616
1800.00000	104.42907	170.46309	104.42907
1850.00000	104.40162	172.11677	104.40162
1900.00000	105.32730	171.91213	105.32730
1950.00000	106.25627	163.82909	106.25627
2000.00000	106.06003	153.72186	106.06003
2050.00000	105.07592	149.74768	105.07592
2100.00000	104.94550	147.33627	104.94550
2150.00000	104.66816	145.36210	104.66816
2200.00000	104.25350	142.04115	104.25350
2250.00000	103.35012	141.57192	103.35012
2300.00000	103.34403	143.75225	103.34403
2350.00000	103.16329	144.96446	103.16329
2400.00000	103.36863	146.25805	103.36863
2450.00000	103.35768	143.21583	103.35768
2500.00000	103.19209	144.32823	103.19209
2550.00000	103.03943	146.00276	103.03943
2600.00000	103.37582	151.49795	103.37582
2650.00000	104.62348	154.88892	104.62348
2700.00000	106.16174	152.63790	106.16174
2750.00000	107.25275	143.99856	107.25275
2800.00000	107.52086	135.03042	107.52086
2850.00000	107.38165	127.60985	107.38165
2900.00000	107.01415	122.17698	107.01415
2950.00000	106.73788	118.94568	106.73788
3000.00000	106.43840	115.60732	106.43840
3050.00000	106.15351	112.95204	106.15351
3100.00000	106.09641	110.29232	106.09641
3150.00000	105.82124	105.53707	105.82124
3200.00000	105.30723	102.26568	105.30723
3250.00000	104.59796	99.70981	104.59796
3300.00000	103.76004	96.96631	103.76004
3350.00000	102.56634	97.11542	102.56634
3400.00000	101.44158	102.80098	101.44158
3450.00000	100.86322	111.18421	100.86322
3500.00000	101.07277	118.58148	101.07277
3550.00000	101.48121	123.88865	101.48121
3600.00000	101.94435	127.22168	101.94435
3650.00000	101.95099	129.38836	101.95099
3700.00000	101.54590	136.47897	101.54590
3750.00000	101.98885	148.40565	101.98885
3800.00000	103.61796	158.89385	103.61796
3850.00000	105.59520	163.89001	105.59520
3900.00000	107.62790	164.38537	107.62790
3950.00000	109.44580	162.04248	109.44580
4000.00000	110.85861	157.84078	110.85861
4050.00000	112.01707	153.31612	112.01707
4100.00000	112.94552	149.27841	112.94552
4150.00000	113.98530	145.64760	113.98530
4200.00000	114.76812	142.17632	114.76812
4250.00000	115.60575	138.98958	115.60575
4300.00000	116.50908	136.17759	116.50908
4350.00000	117.46806	133.39584	117.46806
4400.00000	118.56573	130.63632	118.56573
4450.00000	119.78588	127.20703	119.78588
4500.00000	121.11542	122.70132	121.11542
4550.00000	122.49513	116.67342	122.49513
4600.00000	123.84867	109.33094	123.84867
4650.00000	125.22255	100.69976	125.22255
4700.00000	126.48419	90.04157	126.48419
4750.00000	127.57924	77.47910	127.57924
4800.00000	128.38722	63.15451	128.38722
4850.00000	128.76486	47.83398	128.76486
4900.00000	128.67576	32.41707	128.67576
4950.00000	128.12608	18.02506	128.12608
5000.00000	127.13649	 5.77871	127.13649
5050.00000	126.00651	-2.97983	126.00651
5100.00000	124.77252	-12.17194	124.77252
5150.00000	122.31646	-15.27997	122.31646
5200.00000	120.84609	 2.42467	120.84609
5250.00000	123.88833	11.70153	123.88833
5300.00000	125.98618	-0.96641	125.98618
5350.00000	126.46962	-15.25918	126.46962
5400.00000	126.28173	-27.04054	126.28173
5450.00000	125.86768	-36.40783	125.86768
5500.00000	125.38894	-44.36011	125.38894
5550.00000	124.90708	-51.23328	124.90708
5600.00000	124.42154	-57.49460	124.42154
5650.00000	123.95349	-63.12597	123.95349
5700.00000	123.47473	-68.49166	123.47473
5750.00000	123.04260	-73.34150	123.04260
5800.00000	122.59390	-78.05059	122.59390
5850.00000	122.18021	-82.54677	122.18021
5900.00000	121.78676	-86.84430	121.78676
5950.00000	121.39249	-91.01592	121.39249
6000.00000	121.01154	-94.95129	121.01154
6050.00000	120.62056	-98.94027	120.62056
6100.00000	120.24211	-102.71713	120.24211
6150.00000	119.87654	-106.36722	119.87654
6200.00000	119.49565	-109.99728	119.49565
6250.00000	119.15692	-113.56205	119.15692
6300.00000	118.80644	-116.97672	118.80644
6350.00000	118.43963	-120.54090	118.43963
6400.00000	118.07375	-123.80368	118.07375
6450.00000	117.72581	-127.11393	117.72581
6500.00000	117.34711	-130.30015	117.34711
6550.00000	116.97209	-133.33182	116.97209
6600.00000	116.59361	-136.31060	116.59361
6650.00000	116.21561	-139.09513	116.21561
6700.00000	115.84551	-141.99218	115.84551
6750.00000	115.46385	-144.61626	115.46385
6800.00000	115.08788	-147.12672	115.08788
6850.00000	114.71800	-149.67515	114.71800
6900.00000	114.33551	-151.88918	114.33551
6950.00000	113.96148	-153.93265	113.96148
7000.00000	113.62041	-156.02674	113.62041
7050.00000	113.26396	-158.16188	113.26396
7100.00000	112.92555	-160.12788	112.92555
7150.00000	112.58365	-161.81723	112.58365
7200.00000	112.25040	-163.55400	112.25040
7250.00000	111.88710	-165.04006	111.88710
7300.00000	111.58386	-166.44987	111.58386
7350.00000	111.24940	-167.47782	111.24940
7400.00000	110.97780	-168.60356	110.97780
7450.00000	110.69842	-169.43679	110.69842
7500.00000	110.43103	-170.17986	110.43103
7550.00000	110.26374	-170.79576	110.26374
7600.00000	110.06345	-171.47214	110.06345
7650.00000	109.91949	-172.18091	109.91949
7700.00000	109.84424	-173.15914	109.84424
7750.00000	109.69359	-174.21050	109.69359
7800.00000	109.59415	-175.14706	109.59415
7850.00000	109.51991	-176.14693	109.51991
7900.00000	109.45193	-177.26290	109.45193
7950.00000	109.35192	-178.63254	109.35192
8000.00000	109.26688	-179.93511	109.26688
8050.00000	109.19206	-181.55655	109.19206
8100.00000	109.10515	-182.42415	109.10515
8150.00000	108.97980	-183.62741	108.97980
8200.00000	108.91973	-184.56931	108.91973
8250.00000	108.82187	-185.87343	108.82187
8300.00000	108.77213	-187.00915	108.77213
8350.00000	108.73115	-188.01582	108.73115
8400.00000	108.70298	-189.45578	108.70298
8450.00000	108.60475	-190.47801	108.60475
8500.00000	108.57631	-191.61695	108.57631
8550.00000	108.58144	-192.49993	108.58144
8600.00000	108.58400	-193.90866	108.58400
8650.00000	108.57156	-195.03350	108.57156
8700.00000	108.62243	-196.80414	108.62243
8750.00000	108.59931	-197.33254	108.59931
8800.00000	108.64667	-199.01289	108.64667
8850.00000	108.67889	-200.67639	108.67889
8900.00000	108.74748	-202.09682	108.74748
8950.00000	108.84720	-204.12402	108.84720
9000.00000	108.87448	-205.85765	108.87448
9050.00000	109.04447	-208.02280	109.04447
9100.00000	109.20827	-210.13258	109.20827
9150.00000	109.39031	-212.35930	109.39031
9200.00000	109.57075	-214.68832	109.57075
9250.00000	109.68992	-216.88602	109.68992
9300.00000	109.86949	-219.10994	109.86949
9350.00000	110.05975	-221.35264	110.05975
9400.00000	110.10648	-223.39021	110.10648
9450.00000	110.27010	-225.87167	110.27010
9500.00000	110.39657	-228.35310	110.39657
9550.00000	110.46970	-231.00896	110.46970
9600.00000	110.62743	-234.30911	110.62743
9650.00000	110.72342	-237.98502	110.72342
9700.00000	110.83455	-241.07739	110.83455
9750.00000	110.99133	-245.34065	110.99133
9800.00000	111.05392	-248.32034	111.05392
9850.00000	111.12328	-251.42136	111.12328
9900.00000	111.01137	-254.90525	111.01137
9950.00000	110.98944	-257.75656	110.98944
10000.00000	110.89941	-261.46010	110.89941
10050.00000	110.74003	-264.82189	110.74003
10100.00000	110.55230	-268.29883	110.55230
10150.00000	110.29765	-272.74984	110.29765
10200.00000	110.15101	-276.71359	110.15101
10250.00000	109.94920	-281.06574	109.94920
10300.00000	109.90188	-284.83190	109.90188
10350.00000	109.76192	-288.29607	109.76192
10400.00000	109.57135	-291.74822	109.57135
10450.00000	109.49141	-295.01794	109.49141
10500.00000	109.33216	-297.85917	109.33216
10550.00000	109.09099	-300.81830	109.09099
10600.00000	108.80975	-303.59283	108.80975
10650.00000	108.50003	-306.33437	108.50003
10700.00000	108.24404	-310.50885	108.24404
10750.00000	108.03606	-314.08449	108.03606
10800.00000	107.77569	-317.18344	107.77569
10850.00000	107.57257	-321.07728	107.57257
10900.00000	107.38661	-323.72769	107.38661
10950.00000	107.15515	-325.93800	107.15515
11000.00000	106.84898	-328.22640	106.84898
11050.00000	106.34161	-330.38340	106.34161
11100.00000	105.91740	-333.10348	105.91740
11150.00000	105.37159	-335.53460	105.37159
11200.00000	104.99633	-338.13136	104.99633
11250.00000	104.51846	-341.18751	104.51846
11300.00000	104.08642	-343.81719	104.08642
11350.00000	103.74467	-345.36641	103.74467
11400.00000	103.30263	-346.79701	103.30263
11450.00000	102.95127	-348.19070	102.95127
11500.00000	102.66762	-348.22549	102.66762
11550.00000	102.13738	-348.79089	102.13738
11600.00000	101.78474	-350.52136	101.78474
11650.00000	101.34761	-350.65623	101.34761
11700.00000	101.08047	-351.88742	101.08047
11750.00000	100.87615	-353.29406	100.87615
11800.00000	100.69228	-354.87115	100.69228
11850.00000	100.57710	-354.52547	100.57710
11900.00000	100.24614	-355.63661	100.24614
11950.00000	100.02851	-355.54364	100.02851
12000.00000	99.64441	-355.56425	99.64441
12050.00000	99.20465	-356.04891	99.20465
12100.00000	98.89175	-357.80505	98.89175
12150.00000	98.53678	-359.15553	98.53678
12200.00000	98.32287	-361.04481	98.32287
12250.00000	98.08625	-361.48698	98.08625
12300.00000	99.00055	-362.25263	99.00055
12350.00000	97.61037	-362.27021	97.61037
12400.00000	97.28995	-360.83919	97.28995
12450.00000	96.89765	-359.89339	96.89765
12500.00000	96.50286	-359.57924	96.50286
12550.00000	96.14377	-359.74972	96.14377
12600.00000	95.84049	-359.92049	95.84049
12650.00000	95.74814	-359.68987	95.74814
12700.00000	95.57147	-359.20439	95.57147
12750.00000	95.46855	-358.69592	95.46855
12800.00000	95.31361	-356.61106	95.31361
12850.00000	94.89484	-354.77672	94.89484
12900.00000	94.78659	-353.58152	94.78659
12950.00000	94.66568	-352.82312	94.66568
13000.00000	94.64892	-352.29379	94.64892
13050.00000	94.68853	-350.94993	94.68853
13100.00000	94.73916	-350.33620	94.73916
13150.00000	94.90226	-348.94220	94.90226
13200.00000	94.95315	-346.77149	94.95315
13250.00000	94.89081	-345.35168	94.89081
13300.00000	94.91642	-342.65554	94.91642
13350.00000	94.85623	-342.86636	94.85623
13400.00000	95.17825	-342.91991	95.17825
13450.00000	95.20517	-342.16554	95.20517
13500.00000	95.48556	-340.42372	95.48556
13550.00000	95.67424	-340.03445	95.67424
13600.00000	95.97397	-338.30799	95.97397
13650.00000	96.23983	-336.77666	96.23983
13700.00000	96.27975	-336.49566	96.27975
13750.00000	96.34506	-335.68784	96.34506
13800.00000	96.48763	-337.49756	96.48763
13850.00000	96.68938	-338.25948	96.68938
13900.00000	96.90072	-338.89169	96.90072
13950.00000	97.37390	-338.92835	97.37390
14000.00000	97.98394	-337.52309	97.98394
14050.00000	98.40956	-337.54126	98.40956
14100.00000	98.52959	-336.66091	98.52959
14150.00000	98.96401	-336.78237	98.96401
14200.00000	99.34343	-337.09059	99.34343
14250.00000	99.94121	-336.32871	99.94121
14300.00000	100.27700	-337.57936	100.27700
14350.00000	100.65879	-336.76350	100.65879
14400.00000	100.68088	-338.07524	100.68088
14450.00000	101.03837	-338.13693	101.03837
14500.00000	101.42543	-340.61325	101.42543
14550.00000	101.97078	-341.79482	101.97078
14600.00000	102.37760	-344.33884	102.37760
14650.00000	103.10409	-343.75908	103.10409
14700.00000	103.51946	-348.61282	103.51946
14750.00000	103.89984	-349.72261	103.89984
14800.00000	104.13816	-351.10304	104.13816
14850.00000	104.65859	-353.33182	104.65859
14900.00000	105.10869	-356.43279	105.10869
14950.00000	105.51318	-359.60237	105.51318
15000.00000	105.91071	-362.78441	105.91071
15050.00000	106.12266	-364.61536	106.12266
15100.00000	106.49807	-367.41951	106.49807
15150.00000	106.96288	-371.11278	106.96288
15200.00000	107.13449	-372.04792	107.13449
15250.00000	107.18603	-375.41496	107.18603
15300.00000	107.55269	-378.68736	107.55269
15350.00000	107.63988	-382.74534	107.63988
15400.00000	107.77069	-384.91298	107.77069
15450.00000	107.95966	-388.58077	107.95966
15500.00000	108.25343	-391.66866	108.25343
15550.00000	108.45416	-395.05305	108.45416
15600.00000	108.57541	-398.40050	108.57541
15650.00000	108.87552	-399.54910	108.87552
15700.00000	108.83744	-403.51553	108.83744
15750.00000	109.03691	-405.85916	109.03691
15800.00000	109.13316	-407.73023	109.13316
15850.00000	109.18836	-410.42722	109.18836
15900.00000	109.22067	-413.74120	109.22067
15950.00000	109.36830	-416.45219	109.36830
16000.00000	109.44031	-418.83765	109.44031
16050.00000	109.60691	-421.43661	109.60691
16100.00000	109.57212	-424.59057	109.57212
16150.00000	109.67292	-426.81082	109.67292
16200.00000	109.81916	-429.65019	109.81916
16250.00000	109.91441	-431.38486	109.91441
16300.00000	110.08685	-433.82233	110.08685
16350.00000	110.09722	-436.44697	110.09722
16400.00000	110.18583	-438.62967	110.18583
16450.00000	110.30038	-440.80123	110.30038
16500.00000	110.36921	-443.06385	110.36921
16550.00000	110.53320	-446.07719	110.53320
16600.00000	110.62878	-448.16450	110.62878
16650.00000	110.71040	-450.30288	110.71040
16700.00000	110.88323	-452.12536	110.88323
16750.00000	110.87176	-454.68390	110.87176
16800.00000	111.02159	-457.20217	111.02159
16850.00000	111.22584	-459.35534	111.22584
16900.00000	111.36043	-461.77025	111.36043
16950.00000	111.50389	-463.99942	111.50389
17000.00000	111.49333	-466.48074	111.49333
17050.00000	111.69775	-468.35276	111.69775
17100.00000	111.79490	-470.05988	111.79490
17150.00000	112.11605	-473.00479	112.11605
17200.00000	112.25986	-475.13113	112.25986
17250.00000	112.33612	-478.14859	112.33612
17300.00000	112.56649	-480.74711	112.56649
17350.00000	112.61216	-483.23258	112.61216
17400.00000	112.87664	-485.98684	112.87664
17450.00000	112.94500	-489.14399	112.94500
17500.00000	113.11475	-492.01584	113.11475
17550.00000	113.27057	-495.00381	113.27057
17600.00000	113.50846	-497.66192	113.50846
17650.00000	113.62133	-501.44617	113.62133
17700.00000	113.70750	-504.56189	113.70750
17750.00000	113.92903	-507.18248	113.92903
17800.00000	113.91952	-511.03207	113.91952
17850.00000	114.02422	-513.78579	114.02422
17900.00000	114.08585	-517.16571	114.08585
17950.00000	114.23666	-520.79822	114.23666
18000.00000	114.27650	-524.59152	114.27650
18050.00000	114.46484	-527.31345	114.46484
18100.00000	114.43417	-531.11412	114.43417
18150.00000	114.43916	-533.84290	114.43916
18200.00000	114.42098	-537.87405	114.42098
18250.00000	114.53383	-540.32948	114.53383
18300.00000	114.59176	-543.60717	114.59176
18350.00000	114.57538	-546.81885	114.57538
18400.00000	114.53439	-550.42996	114.53439
18450.00000	114.50941	-554.78296	114.50941
18500.00000	114.54042	-557.82037	114.54042
18550.00000	114.49996	-560.44428	114.49996
18600.00000	114.57209	-564.20923	114.57209
18650.00000	114.41925	-567.03702	114.41925
18700.00000	114.38034	-570.80744	114.38034
18750.00000	114.42678	-573.81682	114.42678
18800.00000	114.49622	-576.39070	114.49622
18850.00000	114.34218	-579.90583	114.34218
18900.00000	114.29116	-582.88285	114.29116
18950.00000	114.26842	-586.73578	114.26842
19000.00000	114.10277	-589.51983	114.10277
19050.00000	114.19312	-592.71988	114.19312
19100.00000	114.06680	-595.66692	114.06680
19150.00000	114.14101	-598.69139	114.14101
19200.00000	114.03774	-601.64999	114.03774
19250.00000	113.97505	-605.91635	113.97505
19300.00000	113.83835	-608.27651	113.83835
19350.00000	113.77968	-611.52842	113.77968
19400.00000	113.65296	-614.48139	113.65296
19450.00000	113.64597	-617.19751	113.64597
19500.00000	113.47537	-621.17170	113.47537
19550.00000	113.41396	-624.09492	113.41396
19600.00000	113.37746	-627.65053	113.37746
19650.00000	113.19121	-630.22294	113.19121
19700.00000	112.97020	-633.57131	112.97020
19750.00000	112.84327	-636.10736	112.84327
19800.00000	112.82329	-639.89956	112.82329
19850.00000	112.71188	-642.42913	112.71188
19900.00000	112.49480	-646.11917	112.49480
19950.00000	112.32156	-649.06213	112.32156
20000.00000	112.18879	-652.05451	112.18879
20050.00000	112.05195	-654.94415	112.05195
20100.00000	111.79666	-657.83404	111.79666
20150.00000	111.67078	-659.71855	111.67078
20200.00000	111.43961	-663.36403	111.43961
20250.00000	111.21171	-666.04331	111.21171
20300.00000	110.95886	-668.71846	110.95886
20350.00000	110.82976	-671.31862	110.82976
20400.00000	110.52511	-673.10401	110.52511
20450.00000	110.20674	-675.70466	110.20674
20500.00000	110.06124	-678.48909	110.06124
20550.00000	109.60998	-679.83703	109.60998
20600.00000	109.45979	-681.59428	109.45979
20650.00000	109.19633	-683.47595	109.19633
20700.00000	108.88963	-685.22579	108.88963
20750.00000	108.71310	-686.75312	108.71310
20800.00000	108.44059	-687.77581	108.44059
20850.00000	108.27111	-688.97183	108.27111
20900.00000	107.96258	-690.00983	107.96258
20950.00000	107.74342	-690.52813	107.74342
21000.00000	107.58229	-691.16205	107.58229
21050.00000	107.58212	-691.35900	107.58212
21100.00000	107.42154	-691.45618	107.42154
21150.00000	107.39614	-692.22624	107.39614
21200.00000	107.39774	-692.39686	107.39774
21250.00000	107.39715	-694.11461	107.39715
21300.00000	107.48192	-694.10176	107.48192
21350.00000	107.47910	-694.54693	107.47910
21400.00000	107.51044	-695.94052	107.51044
21450.00000	107.59832	-697.24107	107.59832
21500.00000	107.72008	-698.73584	107.72008
21550.00000	107.68200	-699.51681	107.68200
21600.00000	107.80199	-701.15960	107.80199
21650.00000	107.81856	-702.97919	107.81856
21700.00000	107.90261	-704.26226	107.90261
21750.00000	107.99119	-705.66479	107.99119
21800.00000	108.04234	-707.30288	108.04234
21850.00000	108.01121	-708.88018	108.01121
21900.00000	108.09646	-710.74452	108.09646
21950.00000	108.17585	-712.43686	108.17585
22000.00000	108.29807	-713.84798	108.29807
22050.00000	108.29727	-715.08345	108.29727
22100.00000	108.30258	-717.28586	108.30258
22150.00000	108.37286	-719.14678	108.37286
22200.00000	108.50160	-720.86449	108.50160
22250.00000	108.49318	-721.96519	108.49318
22300.00000	108.41269	-723.91784	108.41269
22350.00000	108.54696	-726.16044	108.54696
22400.00000	108.66082	-728.20552	108.66082
22450.00000	108.63901	-729.66386	108.63901
22500.00000	108.60598	-730.19744	108.60598
22550.00000	108.61459	-732.37807	108.61459
22600.00000	108.64720	-735.37276	108.64720
