---ACOUSTIC CALIBRATION---
Filename: C:\Data\AZH DATA\AZH41\RightSecondary.calib
Date: 8/27/2019 2:04:17 PM
Format: 4
Probe Tube Correction File: C:\Data\Probe Tube Calibrations\50_ProbeTube.calib
Experiment VIs: 850
EPL_CFTS.exe V12.0.1 (2012)
DAQmx V9.6

Attenuation (dB): 40.000000
Min Freq (Hz): 50.000000
Max Freq (Hz): 49950.000000
Freq Step (Hz): 50.000000
Sample Rate (Hz): 100000.000000
[Smoothing]
Method=None
MA.Iterations=0
MA.Length=0
Loess.Length=0
Loess.Type=Linear
Loess.Robust=FALSE


Freq(Hz)	Mag(dB)	Phase(deg)	Unsmoothed(dB)

50.00000	110.00976	378.06577	110.00976
100.00000	82.94896	462.03353	82.94896
150.00000	81.46283	465.54527	81.46283
200.00000	83.12974	429.38563	83.12974
250.00000	89.34578	431.71589	89.34578
300.00000	91.16496	375.82917	91.16496
350.00000	81.13096	344.21402	81.13096
400.00000	84.46184	311.76984	84.46184
450.00000	83.20213	290.11385	83.20213
500.00000	86.62595	309.34925	86.62595
550.00000	85.47973	337.76114	85.47973
600.00000	88.35701	349.15913	88.35701
650.00000	92.40796	332.70049	92.40796
700.00000	95.06269	326.77243	95.06269
750.00000	96.75079	322.22163	96.75079
800.00000	99.30873	312.59648	99.30873
850.00000	101.70133	302.95739	101.70133
900.00000	103.35587	283.90347	103.35587
950.00000	104.64510	267.79003	104.64510
1000.00000	104.68625	249.33287	104.68625
1050.00000	104.12824	240.84457	104.12824
1100.00000	104.41761	229.24085	104.41761
1150.00000	103.61699	219.61182	103.61699
1200.00000	103.64922	217.10117	103.64922
1250.00000	103.58104	205.70667	103.58104
1300.00000	102.80271	199.65605	102.80271
1350.00000	102.10392	193.87877	102.10392
1400.00000	101.33633	194.10313	101.33633
1450.00000	101.52621	193.94270	101.52621
1500.00000	101.47282	194.25133	101.47282
1550.00000	101.55587	191.35199	101.55587
1600.00000	102.33329	190.16250	102.33329
1650.00000	103.08268	181.02789	103.08268
1700.00000	101.92542	176.75825	101.92542
1750.00000	101.90591	175.17123	101.90591
1800.00000	101.85127	171.66749	101.85127
1850.00000	101.72809	173.69158	101.72809
1900.00000	102.47867	174.00164	102.47867
1950.00000	103.39245	166.93928	103.39245
2000.00000	103.32680	157.65492	103.32680
2050.00000	102.47985	153.05324	102.47985
2100.00000	102.22541	151.85839	102.22541
2150.00000	102.05453	148.20091	102.05453
2200.00000	101.57648	145.63416	101.57648
2250.00000	100.72760	145.06709	100.72760
2300.00000	100.75041	146.54521	100.75041
2350.00000	100.58426	148.12259	100.58426
2400.00000	100.86008	149.16218	100.86008
2450.00000	100.91121	145.32275	100.91121
2500.00000	100.75451	147.41291	100.75451
2550.00000	100.47584	148.31242	100.47584
2600.00000	100.79244	153.93020	100.79244
2650.00000	102.03180	157.25006	102.03180
2700.00000	103.50799	155.04818	103.50799
2750.00000	104.64322	146.48336	104.64322
2800.00000	104.87345	137.38060	104.87345
2850.00000	104.75290	130.58433	104.75290
2900.00000	104.41268	124.80261	104.41268
2950.00000	104.06103	121.38617	104.06103
3000.00000	103.79838	117.90988	103.79838
3050.00000	103.46769	115.36073	103.46769
3100.00000	103.32589	112.26111	103.32589
3150.00000	102.96034	107.91433	102.96034
3200.00000	102.43723	104.98013	102.43723
3250.00000	101.61883	102.62815	101.61883
3300.00000	100.86305	101.03489	100.86305
3350.00000	99.48842	101.63491	99.48842
3400.00000	98.38317	108.95344	98.38317
3450.00000	98.01763	118.58674	98.01763
3500.00000	98.29947	126.94434	98.29947
3550.00000	98.84140	132.14086	98.84140
3600.00000	99.48635	135.55634	99.48635
3650.00000	99.81176	136.73476	99.81176
3700.00000	99.48791	142.82621	99.48791
3750.00000	99.82473	153.49928	99.82473
3800.00000	101.33774	163.89315	101.33774
3850.00000	103.25147	169.37124	103.25147
3900.00000	105.24546	170.39255	105.24546
3950.00000	107.09791	168.32438	107.09791
4000.00000	108.55107	164.51468	108.55107
4050.00000	109.75450	159.93318	109.75450
4100.00000	110.75247	156.15222	110.75247
4150.00000	111.84716	152.46481	111.84716
4200.00000	112.63635	148.71466	112.63635
4250.00000	113.55536	145.60327	113.55536
4300.00000	114.45957	142.74319	114.45957
4350.00000	115.42991	139.83474	115.42991
4400.00000	116.54628	137.09379	116.54628
4450.00000	117.77756	133.78280	117.77756
4500.00000	119.12530	129.32572	119.12530
4550.00000	120.53484	123.51589	120.53484
4600.00000	121.92445	116.40460	121.92445
4650.00000	123.35591	107.83945	123.35591
4700.00000	124.69453	97.18167	124.69453
4750.00000	125.85799	84.58789	125.85799
4800.00000	126.73300	70.02784	126.73300
4850.00000	127.16675	54.37622	127.16675
4900.00000	127.10227	38.52562	127.10227
4950.00000	126.55441	23.79120	126.55441
5000.00000	125.54228	11.29890	125.54228
5050.00000	124.41122	 2.44251	124.41122
5100.00000	123.16932	-6.75272	123.16932
5150.00000	120.72586	-9.92611	120.72586
5200.00000	119.20369	 7.43997	119.20369
5250.00000	122.23044	17.47701	122.23044
5300.00000	124.39320	 4.90142	124.39320
5350.00000	124.91348	-9.46279	124.91348
5400.00000	124.74155	-21.31668	124.74155
5450.00000	124.33859	-30.69511	124.33859
5500.00000	123.87060	-38.62425	123.87060
5550.00000	123.40731	-45.42102	123.40731
5600.00000	122.94463	-51.59994	122.94463
5650.00000	122.49539	-57.17630	122.49539
5700.00000	122.04389	-62.50800	122.04389
5750.00000	121.62563	-67.29807	121.62563
5800.00000	121.20181	-71.96649	121.20181
5850.00000	120.80013	-76.39151	120.80013
5900.00000	120.42801	-80.52917	120.42801
5950.00000	120.06930	-84.57780	120.06930
6000.00000	119.72471	-88.44684	119.72471
6050.00000	119.35242	-92.34184	119.35242
6100.00000	119.00635	-95.99107	119.00635
6150.00000	118.66996	-99.58993	118.66996
6200.00000	118.32940	-103.02633	118.32940
6250.00000	118.01196	-106.43655	118.01196
6300.00000	117.70373	-109.80040	117.70373
6350.00000	117.37493	-113.11312	117.37493
6400.00000	117.05895	-116.25405	117.05895
6450.00000	116.74905	-119.32267	116.74905
6500.00000	116.43339	-122.37315	116.43339
6550.00000	116.10391	-125.29804	116.10391
6600.00000	115.78398	-128.01788	115.78398
6650.00000	115.45787	-130.65031	115.45787
6700.00000	115.14012	-133.24317	115.14012
6750.00000	114.83245	-135.61495	114.83245
6800.00000	114.53133	-137.74177	114.53133
6850.00000	114.24946	-139.88012	114.24946
6900.00000	113.96727	-141.85286	113.96727
6950.00000	113.70625	-143.58541	113.70625
7000.00000	113.49639	-145.35862	113.49639
7050.00000	113.29033	-147.18381	113.29033
7100.00000	113.10668	-148.95628	113.10668
7150.00000	112.94057	-150.46059	112.94057
7200.00000	112.77663	-152.07574	112.77663
7250.00000	112.62897	-153.60522	112.62897
7300.00000	112.54294	-154.95645	112.54294
7350.00000	112.45749	-156.27200	112.45749
7400.00000	112.42752	-157.69515	112.42752
7450.00000	112.40457	-159.25208	112.40457
7500.00000	112.41222	-160.90987	112.41222
7550.00000	112.46857	-162.47401	112.46857
7600.00000	112.53204	-164.29801	112.53204
7650.00000	112.61304	-166.34479	112.61304
7700.00000	112.75981	-168.75419	112.75981
7750.00000	112.84010	-171.54082	112.84010
7800.00000	112.93870	-174.53106	112.93870
7850.00000	113.00882	-177.72529	113.00882
7900.00000	113.06612	-181.06155	113.06612
7950.00000	113.08518	-184.70722	113.08518
8000.00000	113.08987	-188.47127	113.08987
8050.00000	113.02743	-192.58202	113.02743
8100.00000	112.97153	-195.83655	112.97153
8150.00000	112.83742	-199.48721	112.83742
8200.00000	112.73035	-202.91701	112.73035
8250.00000	112.56610	-206.72370	112.56610
8300.00000	112.43414	-210.17228	112.43414
8350.00000	112.25611	-213.49951	112.25611
8400.00000	112.06051	-217.26730	112.06051
8450.00000	111.78112	-220.54160	111.78112
8500.00000	111.51588	-223.75711	111.51588
8550.00000	111.27862	-226.60412	111.27862
8600.00000	110.99964	-229.81897	110.99964
8650.00000	110.68545	-232.58353	110.68545
8700.00000	110.43160	-235.81635	110.43160
8750.00000	110.09487	-237.61143	110.09487
8800.00000	109.84584	-240.56403	109.84584
8850.00000	109.56651	-243.19331	109.56651
8900.00000	109.34254	-245.35681	109.34254
8950.00000	109.13110	-248.05632	109.13110
9000.00000	108.88893	-250.35935	108.88893
9050.00000	108.73742	-252.86581	108.73742
9100.00000	108.55360	-255.01530	108.55360
9150.00000	108.39235	-257.15667	108.39235
9200.00000	108.25299	-259.28663	108.25299
9250.00000	108.02290	-261.30020	108.02290
9300.00000	107.85466	-263.26198	107.85466
9350.00000	107.72501	-265.32586	107.72501
9400.00000	107.44612	-267.04357	107.44612
9450.00000	107.31644	-269.10077	107.31644
9500.00000	107.19187	-270.90477	107.19187
9550.00000	107.04149	-272.82233	107.04149
9600.00000	107.00033	-275.13952	107.00033
9650.00000	106.92727	-277.44256	106.92727
9700.00000	106.86608	-279.00850	106.86608
9750.00000	106.85522	-281.59948	106.85522
9800.00000	106.72378	-282.88549	106.72378
9850.00000	106.61080	-284.14993	106.61080
9900.00000	106.32036	-286.01609	106.32036
9950.00000	106.10880	-287.26655	106.10880
10000.00000	105.89822	-289.63275	105.89822
10050.00000	105.65658	-291.80449	105.65658
10100.00000	105.43523	-294.20044	105.43523
10150.00000	105.17315	-297.48168	105.17315
10200.00000	105.06394	-300.20666	105.06394
10250.00000	104.93600	-303.04569	104.93600
10300.00000	104.96759	-305.29273	104.96759
10350.00000	104.87411	-307.02557	104.87411
10400.00000	104.71790	-308.88472	104.71790
10450.00000	104.67094	-310.67582	104.67094
10500.00000	104.55716	-312.28200	104.55716
10550.00000	104.38569	-314.29435	104.38569
10600.00000	104.18595	-316.27868	104.18595
10650.00000	103.98999	-318.40614	103.98999
10700.00000	103.87182	-321.86523	103.87182
10750.00000	103.83642	-324.74545	103.83642
10800.00000	103.73756	-327.11823	103.73756
10850.00000	103.69418	-330.19500	103.69418
10900.00000	103.63593	-332.15963	103.63593
10950.00000	103.52282	-333.84819	103.52282
11000.00000	103.34800	-335.81787	103.34800
11050.00000	102.97915	-337.98389	102.97915
11100.00000	102.70115	-340.88403	102.70115
11150.00000	102.34458	-343.44634	102.34458
11200.00000	102.15356	-346.28708	102.15356
11250.00000	101.90451	-349.45159	101.90451
11300.00000	101.66146	-352.07732	101.66146
11350.00000	101.47492	-353.81430	101.47492
11400.00000	101.17855	-355.61618	101.17855
11450.00000	100.94009	-357.58646	100.94009
11500.00000	100.74864	-358.54515	100.74864
11550.00000	100.34256	-360.18114	100.34256
11600.00000	100.13135	-363.04334	100.13135
11650.00000	99.84236	-364.40597	99.84236
11700.00000	99.72211	-366.67553	99.72211
11750.00000	99.65082	-368.88819	99.65082
11800.00000	99.53910	-371.23316	99.53910
11850.00000	99.45721	-371.92125	99.45721
11900.00000	99.06324	-374.14719	99.06324
11950.00000	98.81753	-375.53412	98.81753
12000.00000	98.40182	-377.40333	98.40182
12050.00000	97.94706	-379.67346	97.94706
12100.00000	97.63732	-383.24999	97.63732
12150.00000	97.32020	-386.40956	97.32020
12200.00000	97.08276	-389.21781	97.08276
12250.00000	96.75986	-390.80124	96.75986
12300.00000	97.53702	-392.72067	97.53702
12350.00000	96.01071	-393.82049	96.01071
12400.00000	95.48398	-393.73381	95.48398
12450.00000	94.94353	-394.31029	94.94353
12500.00000	94.39726	-395.91875	94.39726
12550.00000	93.89580	-396.95598	93.89580
12600.00000	93.42478	-397.82040	93.42478
12650.00000	93.18733	-397.97151	93.18733
12700.00000	92.80264	-397.15542	92.80264
12750.00000	92.41287	-396.74951	92.41287
12800.00000	91.91697	-395.41907	91.91697
12850.00000	91.12192	-394.58677	91.12192
12900.00000	90.74463	-394.46840	90.74463
12950.00000	90.47198	-394.16472	90.47198
13000.00000	90.28653	-393.37233	90.28653
13050.00000	90.28842	-391.55076	90.28842
13100.00000	90.14454	-390.27529	90.14454
13150.00000	90.05737	-388.77747	90.05737
13200.00000	89.86460	-385.82360	89.86460
13250.00000	89.54615	-384.72252	89.54615
13300.00000	89.22261	-382.57063	89.22261
13350.00000	89.02346	-383.47027	89.02346
13400.00000	89.10465	-384.10121	89.10465
13450.00000	89.12929	-382.01184	89.12929
13500.00000	89.25783	-379.65476	89.25783
13550.00000	89.17674	-378.16200	89.17674
13600.00000	89.29263	-374.37436	89.29263
13650.00000	89.25796	-372.17308	89.25796
13700.00000	89.03353	-371.19350	89.03353
13750.00000	88.96204	-369.66631	88.96204
13800.00000	88.86533	-370.80927	88.86533
13850.00000	88.99478	-371.24583	88.99478
13900.00000	89.13110	-369.71748	89.13110
13950.00000	89.41718	-369.17079	89.41718
14000.00000	89.85285	-366.94227	89.85285
14050.00000	90.03826	-366.50407	90.03826
14100.00000	90.21695	-364.75419	90.21695
14150.00000	90.60974	-364.18013	90.60974
14200.00000	90.94072	-362.38158	90.94072
14250.00000	91.53868	-359.56165	91.53868
14300.00000	91.69648	-359.46342	91.69648
14350.00000	91.80997	-357.18567	91.80997
14400.00000	91.72359	-357.77092	91.72359
14450.00000	91.96646	-357.67684	91.96646
14500.00000	92.38792	-359.36542	92.38792
14550.00000	92.99441	-359.01746	92.99441
14600.00000	93.39915	-360.28709	93.39915
14650.00000	94.07549	-357.51965	94.07549
14700.00000	94.34686	-361.41293	94.34686
14750.00000	94.70340	-361.50046	94.70340
14800.00000	94.97514	-361.82236	94.97514
14850.00000	95.56007	-362.84435	95.56007
14900.00000	96.02384	-364.48720	96.02384
14950.00000	96.39533	-366.30106	96.39533
15000.00000	96.78911	-368.23606	96.78911
15050.00000	96.99470	-368.99481	96.99470
15100.00000	97.40530	-370.36374	97.40530
15150.00000	97.89683	-372.59551	97.89683
15200.00000	98.07353	-372.80100	98.07353
15250.00000	98.20815	-374.84125	98.20815
15300.00000	98.67539	-377.13883	98.67539
15350.00000	98.85359	-380.03152	98.85359
15400.00000	99.06231	-380.56957	99.06231
15450.00000	99.28805	-382.89428	99.28805
15500.00000	99.57350	-384.82733	99.57350
15550.00000	99.86715	-387.92125	99.86715
15600.00000	100.18978	-390.52724	100.18978
15650.00000	100.66048	-390.40692	100.66048
15700.00000	100.80884	-392.86881	100.80884
15750.00000	101.09738	-394.04303	101.09738
15800.00000	101.26766	-395.09940	101.26766
15850.00000	101.42010	-397.67950	101.42010
15900.00000	101.65000	-400.66162	101.65000
15950.00000	102.04360	-402.88464	102.04360
16000.00000	102.30769	-404.79082	102.30769
16050.00000	102.59751	-406.55408	102.59751
16100.00000	102.62540	-409.60767	102.62540
16150.00000	102.85212	-412.39295	102.85212
16200.00000	103.18953	-415.42802	103.18953
16250.00000	103.44959	-417.14594	103.44959
16300.00000	103.75187	-419.32426	103.75187
16350.00000	103.83475	-421.77254	103.83475
16400.00000	103.93500	-423.94730	103.93500
16450.00000	104.10015	-426.42789	104.10015
16500.00000	104.25462	-429.09382	104.25462
16550.00000	104.48001	-432.12390	104.48001
16600.00000	104.66633	-434.03575	104.66633
16650.00000	104.82861	-436.05317	104.82861
16700.00000	105.03666	-437.66781	105.03666
16750.00000	105.07201	-439.98814	105.07201
16800.00000	105.26893	-442.50900	105.26893
16850.00000	105.54510	-444.94748	105.54510
16900.00000	105.74879	-447.26534	105.74879
16950.00000	105.93718	-449.30164	105.93718
17000.00000	105.98659	-451.75601	105.98659
17050.00000	106.22750	-453.55524	106.22750
17100.00000	106.34645	-455.12591	106.34645
17150.00000	106.72421	-458.41030	106.72421
17200.00000	106.93678	-460.57139	106.93678
17250.00000	107.03443	-463.35461	107.03443
17300.00000	107.31720	-465.91583	107.31720
17350.00000	107.38467	-468.26787	107.38467
17400.00000	107.66201	-471.11359	107.66201
17450.00000	107.79749	-474.22016	107.79749
17500.00000	108.01971	-476.83941	108.01971
17550.00000	108.18731	-479.77474	108.18731
17600.00000	108.43526	-482.20486	108.43526
17650.00000	108.55997	-485.96406	108.55997
17700.00000	108.67049	-489.09716	108.67049
17750.00000	108.96240	-491.31307	108.96240
17800.00000	108.99340	-494.80234	108.99340
17850.00000	109.13832	-497.32590	109.13832
17900.00000	109.20022	-500.53722	109.20022
17950.00000	109.40045	-504.02799	109.40045
18000.00000	109.51585	-507.55393	109.51585
18050.00000	109.76086	-510.03552	109.76086
18100.00000	109.77517	-513.49486	109.77517
18150.00000	109.84188	-515.99342	109.84188
18200.00000	109.88182	-519.74382	109.88182
18250.00000	110.04394	-522.18980	110.04394
18300.00000	110.18366	-525.25354	110.18366
18350.00000	110.26784	-528.19322	110.26784
18400.00000	110.27564	-531.62642	110.27564
18450.00000	110.32168	-535.82558	110.32168
18500.00000	110.41364	-538.79619	110.41364
18550.00000	110.47838	-541.46544	110.47838
18600.00000	110.63141	-545.05613	110.63141
18650.00000	110.55116	-547.90499	110.55116
18700.00000	110.58979	-551.49742	110.58979
18750.00000	110.68733	-554.64480	110.68733
18800.00000	110.83415	-557.27443	110.83415
18850.00000	110.76846	-560.90812	110.76846
18900.00000	110.78702	-563.91370	110.78702
18950.00000	110.82247	-567.68421	110.82247
19000.00000	110.71480	-570.53821	110.71480
19050.00000	110.86431	-574.06729	110.86431
19100.00000	110.81990	-577.07081	110.81990
19150.00000	110.96563	-580.25358	110.96563
19200.00000	110.92315	-583.26283	110.92315
19250.00000	110.88386	-587.63996	110.88386
19300.00000	110.80059	-590.30803	110.80059
19350.00000	110.79935	-593.68363	110.79935
19400.00000	110.73117	-596.79543	110.73117
19450.00000	110.76367	-599.48555	110.76367
19500.00000	110.64563	-603.55051	110.64563
19550.00000	110.61223	-606.70576	110.61223
19600.00000	110.61760	-610.46821	110.61760
19650.00000	110.48401	-613.04563	110.48401
19700.00000	110.30912	-616.35024	110.30912
19750.00000	110.20827	-619.01785	110.20827
19800.00000	110.21159	-622.92135	110.21159
19850.00000	110.13877	-625.65502	110.13877
19900.00000	109.98469	-629.53970	109.98469
19950.00000	109.84820	-632.36577	109.84820
20000.00000	109.75025	-635.36926	109.75025
20050.00000	109.63811	-638.40634	109.63811
20100.00000	109.42172	-641.42021	109.42172
20150.00000	109.33256	-643.42522	109.33256
20200.00000	109.13896	-646.92459	109.13896
20250.00000	108.91774	-649.61984	108.91774
20300.00000	108.68779	-652.31777	108.68779
20350.00000	108.59144	-654.97401	108.59144
20400.00000	108.34195	-656.54519	108.34195
20450.00000	108.06532	-659.02613	108.06532
20500.00000	107.93624	-661.56038	107.93624
20550.00000	107.52547	-662.83966	107.52547
20600.00000	107.41710	-664.43898	107.41710
20650.00000	107.23877	-666.06941	107.23877
20700.00000	106.99903	-667.46229	106.99903
20750.00000	106.88092	-668.68585	106.88092
20800.00000	106.69334	-669.45176	106.69334
20850.00000	106.62513	-670.52708	106.62513
20900.00000	106.46449	-671.26005	106.46449
20950.00000	106.36988	-671.48225	106.36988
21000.00000	106.33294	-671.99097	106.33294
21050.00000	106.48210	-672.18931	106.48210
21100.00000	106.50829	-672.46384	106.50829
21150.00000	106.67519	-673.34327	106.67519
21200.00000	106.83860	-673.80345	106.83860
21250.00000	107.00574	-675.99721	107.00574
21300.00000	107.25745	-676.80309	107.25745
21350.00000	107.42695	-678.10884	107.42695
21400.00000	107.60577	-680.32939	107.60577
21450.00000	107.79845	-682.50351	107.79845
21500.00000	107.99226	-685.05262	107.99226
21550.00000	108.06378	-687.15318	108.06378
21600.00000	108.25623	-689.78815	108.25623
21650.00000	108.34179	-692.57886	108.34179
21700.00000	108.43554	-694.86135	108.43554
21750.00000	108.52152	-697.48486	108.52152
21800.00000	108.60239	-700.11339	108.60239
21850.00000	108.58517	-702.47618	108.58517
21900.00000	108.66564	-705.17317	108.66564
21950.00000	108.70342	-707.51205	108.70342
22000.00000	108.79566	-709.85789	108.79566
22050.00000	108.79222	-711.89731	108.79222
22100.00000	108.79979	-714.56441	108.79979
22150.00000	108.82051	-716.81198	108.82051
22200.00000	108.89585	-719.32663	108.89585
22250.00000	108.89050	-721.08423	108.89050
22300.00000	108.78875	-723.56904	108.78875
22350.00000	108.91698	-725.96561	108.91698
22400.00000	108.95646	-728.55784	108.95646
22450.00000	108.92408	-730.48493	108.92408
22500.00000	108.86748	-731.70706	108.86748
22550.00000	108.88323	-734.18835	108.88323
22600.00000	108.89067	-737.11606	108.89067
22650.00000	108.94118	-739.21062	108.94118
22700.00000	108.95105	-740.75585	108.95105
