---ACOUSTIC CALIBRATION---
Filename: C:\Data\CL0809 DATA\CL0809100\RightPrimary.calib
Date: 8/9/2019 9:00:41 AM
Format: 4
Probe Tube Correction File: C:\Data\Probe Tube Calibrations\74_ProbeTube.calib
Experiment VIs: 2128
EPL_CFTS.exe V15.0.1f5 (2015)
DAQmx V15.1

Attenuation (dB): 40.000000
Min Freq (Hz): 50.000000
Max Freq (Hz): 99950.000000
Freq Step (Hz): 50.000000
Sample Rate (Hz): 200000.000000
[Smoothing]
Method=None
MA.Iterations=0
MA.Length=0
Loess.Length=0
Loess.Type=Linear
Loess.Robust=FALSE


Freq(Hz)	Mag(dB)	Phase(deg)	Unsmoothed(dB)

50.00000	90.59523	104.86297	90.59523
100.00000	65.29434	220.61642	65.29434
150.00000	62.97838	393.08535	62.97838
200.00000	54.03527	720.49530	54.03527
250.00000	54.41360	1044.76440	54.41360
300.00000	65.10460	1204.60742	65.10460
350.00000	60.72724	1358.35637	60.72724
400.00000	60.00187	1427.72721	60.00187
450.00000	60.83300	1451.30689	60.83300
500.00000	63.73634	1573.53062	63.73634
550.00000	69.09337	1520.63892	69.09337
600.00000	65.64250	1486.91910	65.64250
650.00000	73.63448	1486.19509	73.63448
700.00000	72.28318	1491.61354	72.28318
750.00000	76.04610	1459.03546	76.04610
800.00000	78.16398	1450.20512	78.16398
850.00000	76.97404	1443.68148	76.97404
900.00000	77.62001	1451.98206	77.62001
950.00000	80.22651	1448.97399	80.22651
1000.00000	82.20126	1454.98465	82.20126
1050.00000	85.10463	1447.00100	85.10463
1100.00000	88.01468	1436.06890	88.01468
1150.00000	89.99358	1421.70689	89.99358
1200.00000	91.34547	1408.25912	91.34547
1250.00000	92.13448	1394.43932	92.13448
1300.00000	92.51689	1384.35363	92.51689
1350.00000	93.23167	1377.85328	93.23167
1400.00000	94.39955	1369.58596	94.39955
1450.00000	95.05784	1357.61646	95.05784
1500.00000	95.39092	1347.85450	95.39092
1550.00000	95.60013	1338.15576	95.60013
1600.00000	96.01783	1333.39175	96.01783
1650.00000	96.51633	1330.30362	96.51633
1700.00000	100.40734	1314.95194	100.40734
1750.00000	97.45569	1294.99509	97.45569
1800.00000	97.24381	1289.48414	97.24381
1850.00000	97.05905	1281.52478	97.05905
1900.00000	96.91560	1273.72728	96.91560
1950.00000	96.24494	1267.57627	96.24494
2000.00000	95.62844	1263.58597	95.62844
2050.00000	95.29199	1264.14690	95.29199
2100.00000	96.17001	1263.05976	96.17001
2150.00000	97.00922	1254.53158	97.00922
2200.00000	96.95609	1242.07450	96.95609
2250.00000	96.00123	1233.77613	96.00123
2300.00000	95.37797	1232.60925	95.37797
2350.00000	95.63733	1228.20403	95.63733
2400.00000	95.60891	1221.01639	95.60891
2450.00000	95.00509	1213.18975	95.00509
2500.00000	94.13886	1210.41895	94.13886
2550.00000	93.91020	1207.19098	93.91020
2600.00000	93.52827	1203.47169	93.52827
2650.00000	93.14858	1200.60828	93.14858
2700.00000	92.81227	1196.58368	92.81227
2750.00000	92.36728	1193.30129	92.36728
2800.00000	91.86528	1189.64022	91.86528
2850.00000	91.37488	1186.80559	91.37488
2900.00000	90.94666	1184.37583	90.94666
2950.00000	90.40172	1182.92568	90.40172
3000.00000	89.99615	1181.92863	89.99615
3050.00000	89.55314	1180.89337	89.55314
3100.00000	89.24341	1180.57132	89.24341
3150.00000	88.83048	1180.48732	88.83048
3200.00000	88.72125	1178.89607	88.72125
3250.00000	88.61485	1178.22101	88.61485
3300.00000	88.30707	1175.89699	88.30707
3350.00000	88.05952	1174.64574	88.05952
3400.00000	87.68225	1173.14307	87.68225
3450.00000	87.24444	1172.69204	87.24444
3500.00000	86.87813	1172.67741	86.87813
3550.00000	86.88562	1170.81811	86.88562
3600.00000	86.28559	1167.23851	86.28559
3650.00000	85.61735	1166.12053	85.61735
3700.00000	84.72192	1164.71285	84.72192
3750.00000	83.69073	1163.44339	83.69073
3800.00000	82.71886	1164.58874	82.71886
3850.00000	81.01727	1162.16104	81.01727
3900.00000	78.94674	1168.78394	78.94674
3950.00000	76.79979	1187.93764	76.79979
4000.00000	75.35406	1214.09471	75.35406
4050.00000	77.11423	1238.03534	77.11423
4100.00000	79.95436	1255.54474	79.95436
4150.00000	83.67553	1261.90674	83.67553
4200.00000	86.22987	1262.45427	86.22987
4250.00000	87.59885	1254.80131	87.59885
4300.00000	88.84423	1256.30515	88.84423
4350.00000	90.35880	1255.52250	90.35880
4400.00000	91.89835	1252.46382	91.89835
4450.00000	92.99704	1247.99787	92.99704
4500.00000	94.10141	1244.42748	94.10141
4550.00000	94.94034	1241.16881	94.94034
4600.00000	95.90946	1237.62092	95.90946
4650.00000	96.80104	1233.84823	96.80104
4700.00000	97.54907	1230.29418	97.54907
4750.00000	98.29194	1227.83446	98.29194
4800.00000	99.21915	1225.80174	99.21915
4850.00000	100.24478	1222.83056	100.24478
4900.00000	101.31893	1218.79200	101.31893
4950.00000	102.39683	1214.61860	102.39683
5000.00000	103.50418	1209.70669	103.50418
5050.00000	104.67850	1204.24525	104.67850
5100.00000	105.96698	1198.24137	105.96698
5150.00000	107.49038	1191.20176	107.49038
5200.00000	109.43191	1181.36492	109.43191
5250.00000	111.97797	1164.81039	111.97797
5300.00000	114.30254	1128.04964	114.30254
5350.00000	111.02943	1079.14025	111.02943
5400.00000	104.37992	1061.77065	104.37992
5450.00000	98.44445	1073.10357	98.44445
5500.00000	96.68049	1101.29765	96.68049
5550.00000	97.70597	1109.93464	97.70597
5600.00000	96.49029	1109.74840	96.49029
5650.00000	95.37980	1127.62559	95.37980
5700.00000	96.91013	1141.90094	96.91013
5750.00000	98.75804	1146.14148	98.75804
5800.00000	100.22957	1146.13644	100.22957
5850.00000	101.40706	1144.18907	101.40706
5900.00000	102.40148	1140.90930	102.40148
5950.00000	103.26767	1137.17225	103.26767
6000.00000	103.97465	1132.71921	103.97465
6050.00000	104.49330	1127.85242	104.49330
6100.00000	104.82965	1123.14812	104.82965
6150.00000	104.96824	1119.42300	104.96824
6200.00000	105.10629	1117.26240	105.10629
6250.00000	105.34743	1116.19809	105.34743
6300.00000	105.76431	1115.54488	105.76431
6350.00000	106.37467	1114.90712	106.37467
6400.00000	107.13632	1113.85327	107.13632
6450.00000	108.01151	1111.91433	108.01151
6500.00000	108.95669	1109.12590	108.95669
6550.00000	109.97973	1105.38095	109.97973
6600.00000	111.01355	1100.60142	111.01355
6650.00000	112.04903	1094.64230	112.04903
6700.00000	113.05412	1087.43714	113.05412
6750.00000	113.95665	1078.94641	113.95665
6800.00000	114.70229	1069.36882	114.70229
6850.00000	115.24498	1059.17582	115.24498
6900.00000	115.58694	1048.53098	115.58694
6950.00000	115.71834	1037.96963	115.71834
7000.00000	115.65945	1027.65396	115.65945
7050.00000	115.44962	1017.98278	115.44962
7100.00000	115.10287	1009.12739	115.10287
7150.00000	114.68303	1001.15571	114.68303
7200.00000	114.23612	993.98560	114.23612
7250.00000	113.78998	987.49438	113.78998
7300.00000	113.34796	981.44877	113.34796
7350.00000	112.91142	975.69560	112.91142
7400.00000	112.44682	970.44545	112.44682
7450.00000	112.01928	965.62052	112.01928
7500.00000	111.61421	960.95368	111.61421
7550.00000	111.21565	956.38105	111.21565
7600.00000	110.80109	952.05101	110.80109
7650.00000	110.39838	947.83737	110.39838
7700.00000	109.97429	943.85900	109.97429
7750.00000	109.55184	940.27934	109.55184
7800.00000	109.13144	936.94356	109.13144
7850.00000	108.74892	933.90381	108.74892
7900.00000	108.36622	930.98454	108.36622
7950.00000	108.02561	928.45964	108.02561
8000.00000	107.72384	926.07529	107.72384
8050.00000	107.42741	923.75616	107.42741
8100.00000	107.17594	921.51836	107.17594
8150.00000	106.96171	919.38478	106.96171
8200.00000	106.77665	917.22209	106.77665
8250.00000	106.63229	914.93319	106.63229
8300.00000	106.50133	912.59467	106.50133
8350.00000	106.33514	910.19269	106.33514
8400.00000	106.22363	908.01787	106.22363
8450.00000	106.12647	905.72264	106.12647
8500.00000	106.06089	903.33160	106.06089
8550.00000	105.99191	900.89899	105.99191
8600.00000	105.97245	898.40886	105.97245
8650.00000	105.95217	895.86156	105.95217
8700.00000	105.93136	892.87138	105.93136
8750.00000	105.89106	889.96092	105.89106
8800.00000	105.86606	886.96519	105.86606
8850.00000	105.88600	883.74200	105.88600
8900.00000	105.83827	880.44829	105.83827
8950.00000	105.82913	877.00092	105.82913
9000.00000	105.70409	873.25851	105.70409
9050.00000	105.64800	870.09952	105.64800
9100.00000	105.61764	866.70927	105.61764
9150.00000	105.56230	862.61146	105.56230
9200.00000	105.38130	859.02246	105.38130
9250.00000	105.23274	855.58993	105.23274
9300.00000	105.14054	851.74660	105.14054
9350.00000	104.94966	847.99004	104.94966
9400.00000	104.74016	844.14001	104.74016
9450.00000	104.54593	840.57304	104.54593
9500.00000	104.28836	836.98240	104.28836
9550.00000	104.02835	833.90576	104.02835
9600.00000	103.81271	830.91829	103.81271
9650.00000	103.60497	827.71864	103.60497
9700.00000	103.32293	824.58109	103.32293
9750.00000	103.04771	821.56402	103.04771
9800.00000	102.74434	819.05662	102.74434
9850.00000	102.45602	816.21869	102.45602
9900.00000	102.12297	814.34012	102.12297
9950.00000	101.72088	812.42360	101.72088
10000.00000	101.29913	812.28735	101.29913
10050.00000	101.13877	814.38421	101.13877
10100.00000	101.79424	815.04711	101.79424
10150.00000	102.23909	810.26384	102.23909
10200.00000	102.25073	805.20748	102.25073
10250.00000	102.08950	801.52628	102.08950
10300.00000	101.92965	798.32850	101.92965
10350.00000	101.77612	795.33546	101.77612
10400.00000	101.58345	792.54330	101.58345
10450.00000	101.47979	789.95783	101.47979
10500.00000	101.41189	787.14996	101.41189
10550.00000	101.36792	784.63181	101.36792
10600.00000	101.38024	781.52196	101.38024
10650.00000	101.32547	778.65374	101.32547
10700.00000	101.30631	775.41872	101.30631
10750.00000	101.30019	772.55848	101.30019
10800.00000	101.31947	768.82782	101.31947
10850.00000	101.33285	765.25721	101.33285
10900.00000	101.33013	761.62375	101.33013
10950.00000	101.30362	757.90621	101.30362
11000.00000	101.32734	753.72917	101.32734
11050.00000	101.20604	749.54770	101.20604
11100.00000	101.17864	745.55452	101.17864
11150.00000	101.10227	741.03021	101.10227
11200.00000	100.99290	736.67505	100.99290
11250.00000	100.80813	731.78439	100.80813
11300.00000	100.61737	727.10745	100.61737
11350.00000	100.42388	722.18735	100.42388
11400.00000	100.12229	717.24927	100.12229
11450.00000	99.84134	712.26671	99.84134
11500.00000	99.50896	707.32444	99.50896
11550.00000	99.15518	702.15587	99.15518
11600.00000	98.73905	697.46453	98.73905
11650.00000	98.30410	692.81067	98.30410
11700.00000	97.90571	688.13508	97.90571
11750.00000	97.45402	683.59055	97.45402
11800.00000	97.02787	679.54074	97.02787
11850.00000	96.60579	675.33330	96.60579
11900.00000	96.10921	671.56600	96.10921
11950.00000	95.67507	667.88381	95.67507
12000.00000	95.30379	664.43246	95.30379
12050.00000	94.77343	661.04210	94.77343
12100.00000	94.24469	657.58199	94.24469
12150.00000	93.67804	653.94235	93.67804
12200.00000	93.13900	650.37675	93.13900
12250.00000	92.58605	647.09173	92.58605
12300.00000	91.82689	644.07602	91.82689
12350.00000	91.23969	641.03440	91.23969
12400.00000	90.60377	637.15036	90.60377
12450.00000	89.98805	634.09355	89.98805
12500.00000	89.45581	631.07302	89.45581
12550.00000	88.77736	627.95950	88.77736
12600.00000	88.16810	624.21589	88.16810
12650.00000	87.57712	621.88792	87.57712
12700.00000	86.76823	618.17199	86.76823
12750.00000	86.28014	615.98120	86.28014
12800.00000	85.67057	611.22616	85.67057
12850.00000	85.05478	609.26330	85.05478
12900.00000	84.39518	604.38005	84.39518
12950.00000	83.81446	599.65883	83.81446
13000.00000	83.10286	594.64421	83.10286
13050.00000	82.59197	589.74114	82.59197
13100.00000	82.06919	584.84730	82.06919
13150.00000	81.66177	580.35599	81.66177
13200.00000	81.60725	571.05242	81.60725
13250.00000	81.58484	561.73834	81.58484
13300.00000	81.71341	557.80595	81.71341
13350.00000	82.62745	550.58331	82.62745
13400.00000	83.09182	548.84021	83.09182
13450.00000	83.53210	553.20301	83.53210
13500.00000	83.05059	563.05672	83.05059
13550.00000	81.85700	564.15890	81.85700
13600.00000	80.35936	562.98791	80.35936
13650.00000	78.48623	555.34148	78.48623
13700.00000	77.58421	547.13136	77.58421
13750.00000	76.80083	532.95872	76.80083
13800.00000	76.55109	520.47899	76.55109
13850.00000	76.83396	506.37111	76.83396
13900.00000	77.21597	493.98045	77.21597
13950.00000	78.06764	481.18838	78.06764
14000.00000	79.89361	472.35929	79.89361
14050.00000	81.82075	466.24842	81.82075
14100.00000	84.46480	463.83892	84.46480
14150.00000	86.64376	473.61907	86.64376
14200.00000	87.09685	486.56593	87.09685
14250.00000	86.56354	494.47809	86.56354
14300.00000	85.45083	496.94411	85.45083
14350.00000	84.50459	492.20147	84.50459
14400.00000	84.06674	488.03142	84.06674
14450.00000	83.86241	481.42019	83.86241
14500.00000	83.49278	476.21186	83.49278
14550.00000	84.08886	467.85326	84.08886
14600.00000	84.10384	462.46203	84.10384
14650.00000	85.15399	455.10224	85.15399
14700.00000	85.96065	448.88278	85.96065
14750.00000	87.13371	442.66991	87.13371
14800.00000	88.21501	438.65135	88.21501
14850.00000	89.64741	436.16427	89.64741
14900.00000	90.88528	435.33260	90.88528
14950.00000	91.92292	438.01795	91.92292
15000.00000	92.52100	440.97274	92.52100
15050.00000	92.73607	442.23263	92.73607
15100.00000	93.00039	442.84728	93.00039
15150.00000	93.03580	440.75689	93.03580
15200.00000	93.13191	436.37595	93.13191
15250.00000	93.23664	432.89892	93.23664
15300.00000	93.32117	426.35462	93.32117
15350.00000	93.65789	420.71616	93.65789
15400.00000	94.00779	414.88693	94.00779
15450.00000	94.63639	407.72085	94.63639
15500.00000	95.39818	402.12791	95.39818
15550.00000	96.07546	397.70949	96.07546
15600.00000	96.74983	393.50183	96.74983
15650.00000	97.48001	389.87431	97.48001
15700.00000	97.92466	387.48952	97.92466
15750.00000	98.29288	385.91653	98.29288
15800.00000	98.48322	384.02412	98.48322
15850.00000	98.67011	382.37537	98.67011
15900.00000	98.62552	378.75754	98.62552
15950.00000	98.64834	374.76914	98.64834
16000.00000	98.68729	370.19497	98.68729
16050.00000	98.83987	365.45008	98.83987
16100.00000	98.91183	360.85860	98.91183
16150.00000	99.09512	355.46467	99.09512
16200.00000	99.40376	351.79207	99.40376
16250.00000	99.69312	346.88921	99.69312
16300.00000	100.02922	342.72929	100.02922
16350.00000	100.38514	339.89260	100.38514
16400.00000	100.51747	337.15724	100.51747
16450.00000	100.75859	334.58044	100.75859
16500.00000	100.88198	332.14543	100.88198
16550.00000	100.94623	329.45435	100.94623
16600.00000	101.04976	326.37923	101.04976
16650.00000	101.02423	322.98990	101.02423
16700.00000	101.11278	319.57958	101.11278
16750.00000	101.13348	315.70486	101.13348
16800.00000	101.22170	312.48745	101.22170
16850.00000	101.40401	308.46725	101.40401
16900.00000	101.56028	305.31565	101.56028
16950.00000	101.73877	302.02669	101.73877
17000.00000	101.96908	299.09380	101.96908
17050.00000	102.17118	296.29096	102.17118
17100.00000	102.27488	293.63521	102.27488
17150.00000	102.46714	290.64129	102.46714
17200.00000	102.49646	287.90731	102.49646
17250.00000	102.61691	284.78099	102.61691
17300.00000	102.69986	281.67332	102.69986
17350.00000	102.77992	278.11543	102.77992
17400.00000	102.91929	274.25149	102.91929
17450.00000	103.06328	270.89877	103.06328
17500.00000	103.13023	267.01999	103.13023
17550.00000	103.27965	263.35760	103.27965
17600.00000	103.43148	259.80774	103.43148
17650.00000	103.52975	256.69839	103.52975
17700.00000	103.63973	253.23040	103.63973
17750.00000	103.72810	249.87360	103.72810
17800.00000	103.75243	246.48160	103.75243
17850.00000	103.79543	243.18940	103.79543
17900.00000	103.82940	239.80894	103.82940
17950.00000	103.82060	236.14509	103.82060
18000.00000	103.81650	232.72200	103.81650
18050.00000	103.79244	229.25325	103.79244
18100.00000	103.77899	225.80592	103.77899
18150.00000	103.70464	222.41537	103.70464
18200.00000	103.71107	219.25774	103.71107
18250.00000	103.66419	216.20040	103.66419
18300.00000	103.58453	213.01611	103.58453
18350.00000	103.53532	209.99477	103.53532
18400.00000	103.46913	207.30677	103.46913
18450.00000	103.44579	204.47058	103.44579
18500.00000	103.43250	201.88491	103.43250
18550.00000	103.37021	199.03529	103.37021
18600.00000	103.35551	196.61142	103.35551
18650.00000	103.35067	193.80095	103.35067
18700.00000	103.35833	191.51225	103.35833
18750.00000	103.33347	188.95612	103.33347
18800.00000	103.31696	186.47292	103.31696
18850.00000	103.30287	184.26513	103.30287
18900.00000	103.29634	181.85300	103.29634
18950.00000	103.30984	179.09963	103.30984
19000.00000	103.27401	176.49950	103.27401
19050.00000	103.30023	173.88860	103.30023
19100.00000	103.31149	171.28052	103.31149
19150.00000	103.34076	169.00010	103.34076
19200.00000	103.37437	166.18724	103.37437
19250.00000	103.36768	163.91395	103.36768
19300.00000	103.41290	161.53300	103.41290
19350.00000	103.45480	158.95074	103.45480
19400.00000	103.45985	156.38529	103.45985
19450.00000	103.45945	153.70745	103.45945
19500.00000	103.49137	151.26623	103.49137
19550.00000	103.52178	148.84029	103.52178
19600.00000	103.54599	146.21692	103.54599
19650.00000	103.57769	143.60269	103.57769
19700.00000	103.62336	140.94045	103.62336
19750.00000	103.63547	138.43742	103.63547
19800.00000	103.68385	136.00562	103.68385
19850.00000	103.71108	133.39712	103.71108
19900.00000	103.75080	130.81531	103.75080
19950.00000	103.78877	128.30385	103.78877
20000.00000	103.78624	125.37741	103.78624
20050.00000	103.83142	122.91356	103.83142
20100.00000	103.88107	120.11072	103.88107
20150.00000	103.91149	117.26750	103.91149
20200.00000	103.93997	114.54310	103.93997
20250.00000	103.99609	112.08226	103.99609
20300.00000	104.01749	109.45484	104.01749
20350.00000	104.03011	106.71082	104.03011
20400.00000	104.06629	104.04687	104.06629
20450.00000	104.10027	101.17213	104.10027
20500.00000	104.14180	98.34472	104.14180
20550.00000	104.14193	95.43137	104.14193
20600.00000	104.15872	92.51341	104.15872
20650.00000	104.21220	89.67647	104.21220
20700.00000	104.25059	87.20270	104.25059
20750.00000	104.23282	84.24453	104.23282
20800.00000	104.24792	81.61215	104.24792
20850.00000	104.27706	78.51304	104.27706
20900.00000	104.24206	75.88974	104.24206
20950.00000	104.25910	72.95606	104.25910
21000.00000	104.28149	69.88130	104.28149
21050.00000	104.30158	67.04299	104.30158
21100.00000	104.30902	64.21371	104.30902
21150.00000	104.32152	61.52117	104.32152
21200.00000	104.31775	58.81492	104.31775
21250.00000	104.27694	55.79837	104.27694
21300.00000	104.26172	52.88864	104.26172
21350.00000	104.27075	50.00052	104.27075
21400.00000	104.25301	46.95324	104.25301
21450.00000	104.28411	43.93496	104.28411
21500.00000	104.32176	41.37332	104.32176
21550.00000	104.29530	38.32006	104.29530
21600.00000	104.30034	35.18170	104.30034
21650.00000	104.28569	32.45336	104.28569
21700.00000	104.25555	28.96129	104.25555
21750.00000	104.25022	25.95599	104.25022
21800.00000	104.21580	22.84601	104.21580
21850.00000	104.20842	19.74912	104.20842
21900.00000	104.15295	16.80952	104.15295
21950.00000	104.12552	13.66517	104.12552
22000.00000	104.02351	10.60852	104.02351
22050.00000	103.98056	 7.84115	103.98056
22100.00000	103.92725	 5.24885	103.92725
22150.00000	103.87342	 2.17001	103.87342
22200.00000	103.84621	-0.91669	103.84621
22250.00000	103.79758	-3.82865	103.79758
22300.00000	103.76994	-6.96094	103.76994
22350.00000	103.71688	-10.16366	103.71688
22400.00000	103.64256	-13.27034	103.64256
22450.00000	103.59533	-16.49883	103.59533
22500.00000	103.48436	-19.77475	103.48436
22550.00000	103.44625	-23.04855	103.44625
22600.00000	103.32251	-26.01045	103.32251
22650.00000	103.22689	-28.95057	103.22689
22700.00000	103.14372	-31.78349	103.14372
22750.00000	103.03114	-35.27804	103.03114
22800.00000	102.89484	-38.27634	102.89484
22850.00000	102.78588	-41.44737	102.78588
22900.00000	102.67179	-44.14485	102.67179
22950.00000	102.57727	-47.26308	102.57727
23000.00000	102.41110	-50.16084	102.41110
23050.00000	102.23500	-53.50066	102.23500
23100.00000	102.14792	-56.34208	102.14792
23150.00000	101.95689	-59.45854	101.95689
