---ACOUSTIC CALIBRATION---
Filename: C:\Data\CL0809 DATA\CL0809100\RightSecondary.calib
Date: 8/9/2019 9:02:05 AM
Format: 4
Probe Tube Correction File: C:\Data\Probe Tube Calibrations\74_ProbeTube.calib
Experiment VIs: 2128
EPL_CFTS.exe V15.0.1f5 (2015)
DAQmx V15.1

Attenuation (dB): 40.000000
Min Freq (Hz): 50.000000
Max Freq (Hz): 99950.000000
Freq Step (Hz): 50.000000
Sample Rate (Hz): 200000.000000
[Smoothing]
Method=None
MA.Iterations=0
MA.Length=0
Loess.Length=0
Loess.Type=Linear
Loess.Robust=FALSE


Freq(Hz)	Mag(dB)	Phase(deg)	Unsmoothed(dB)

50.00000	86.18828	311.14461	86.18828
100.00000	66.86691	349.67315	66.86691
150.00000	69.84034	431.46206	69.84034
200.00000	61.14016	525.90794	61.14016
250.00000	48.86906	737.48348	48.86906
300.00000	67.46592	879.81344	67.46592
350.00000	65.60387	1008.84356	65.60387
400.00000	63.62245	1092.17799	63.62245
450.00000	71.87645	1117.51661	71.87645
500.00000	74.57859	1215.94242	74.57859
550.00000	80.44676	1156.05583	80.44676
600.00000	79.72337	1106.96410	79.72337
650.00000	86.23225	1096.03391	86.23225
700.00000	85.90906	1102.52105	85.90906
750.00000	90.06828	1065.09120	90.06828
800.00000	91.13091	1047.92707	91.13091
850.00000	90.52375	1038.07157	90.52375
900.00000	90.78946	1030.78992	90.78946
950.00000	92.27979	1017.63521	92.27979
1000.00000	92.65561	1011.03480	92.65561
1050.00000	92.93494	995.70301	92.93494
1100.00000	92.56446	985.67408	92.56446
1150.00000	91.83760	979.64227	91.83760
1200.00000	90.69059	979.98315	90.69059
1250.00000	90.85347	985.14410	90.85347
1300.00000	91.70378	987.52175	91.70378
1350.00000	92.65456	986.54881	92.65456
1400.00000	93.43151	985.42755	93.43151
1450.00000	94.06481	984.78545	94.06481
1500.00000	95.33079	985.11170	95.33079
1550.00000	96.59368	980.64121	96.59368
1600.00000	98.02122	978.32092	98.02122
1650.00000	99.32821	974.84066	99.32821
1700.00000	103.69793	958.87538	103.69793
1750.00000	101.03218	938.04545	101.03218
1800.00000	100.98213	932.11103	100.98213
1850.00000	100.79657	924.13663	100.79657
1900.00000	100.84149	917.22702	100.84149
1950.00000	100.41134	910.72403	100.41134
2000.00000	99.79653	904.41284	99.79653
2050.00000	98.92967	901.51475	98.92967
2100.00000	98.39716	904.92913	98.39716
2150.00000	99.41505	907.03390	99.41505
2200.00000	100.09445	898.43997	100.09445
2250.00000	99.69668	892.30287	99.69668
2300.00000	99.42172	890.23877	99.42172
2350.00000	99.39870	886.45228	99.39870
2400.00000	99.39419	884.51364	99.39419
2450.00000	99.19629	880.32406	99.19629
2500.00000	98.69101	880.67291	98.69101
2550.00000	98.90414	880.56981	98.90414
2600.00000	99.06740	879.28021	99.06740
2650.00000	99.21878	878.82909	99.21878
2700.00000	99.47069	876.96387	99.47069
2750.00000	99.69958	875.72839	99.69958
2800.00000	99.97049	873.41234	99.97049
2850.00000	100.28360	871.26637	100.28360
2900.00000	100.59973	868.79447	100.59973
2950.00000	100.87920	866.41675	100.87920
3000.00000	101.10940	863.83625	101.10940
3050.00000	101.35407	860.99134	101.35407
3100.00000	101.55108	857.93122	101.55108
3150.00000	101.55483	855.40493	101.55483
3200.00000	101.72661	852.57841	101.72661
3250.00000	101.95993	850.38364	101.95993
3300.00000	102.01346	847.98720	102.01346
3350.00000	102.24538	846.27006	102.24538
3400.00000	102.33971	844.23056	102.33971
3450.00000	102.45587	843.15796	102.45587
3500.00000	102.60800	842.49551	102.60800
3550.00000	103.25692	840.73728	103.25692
3600.00000	103.32172	837.63100	103.32172
3650.00000	103.65170	837.81907	103.65170
3700.00000	103.97606	836.96582	103.97606
3750.00000	104.62985	834.63596	104.62985
3800.00000	105.60685	832.98439	105.60685
3850.00000	106.32818	823.52116	106.32818
3900.00000	106.82489	815.25019	106.82489
3950.00000	106.09226	811.09426	106.09226
4000.00000	105.72211	811.86118	105.72211
4050.00000	106.07298	812.28547	106.07298
4100.00000	106.66340	811.99232	106.66340
4150.00000	108.17754	809.00290	108.17754
4200.00000	109.08104	804.53808	109.08104
4250.00000	109.16657	792.04052	109.16657
4300.00000	109.27261	788.99771	109.27261
4350.00000	109.68219	784.10993	109.68219
4400.00000	110.01254	777.82440	110.01254
4450.00000	110.08596	770.61182	110.08596
4500.00000	110.17644	764.37768	110.17644
4550.00000	110.06347	758.93271	110.06347
4600.00000	110.07242	753.37442	110.07242
4650.00000	110.05552	748.44880	110.05552
4700.00000	109.99205	743.51911	109.99205
4750.00000	109.93217	738.88658	109.93217
4800.00000	109.92376	734.56945	109.92376
4850.00000	109.92164	729.85515	109.92164
4900.00000	109.91577	724.52681	109.91577
4950.00000	109.87819	719.51524	109.87819
5000.00000	109.78734	714.06163	109.78734
5050.00000	109.65316	708.68416	109.65316
5100.00000	109.46616	703.33462	109.46616
5150.00000	109.22220	698.14033	109.22220
5200.00000	108.90281	692.83236	108.90281
5250.00000	108.37652	687.72141	108.37652
5300.00000	107.57584	686.05037	107.57584
5350.00000	107.90841	686.35079	107.90841
5400.00000	108.00944	680.44699	108.00944
5450.00000	107.72401	675.36149	107.72401
5500.00000	107.40044	670.86802	107.40044
5550.00000	107.07197	667.32337	107.07197
5600.00000	106.76504	663.47157	106.76504
5650.00000	106.38442	660.18905	106.38442
5700.00000	106.03272	656.89672	106.03272
5750.00000	105.72918	653.83115	105.72918
5800.00000	105.38186	651.13248	105.38186
5850.00000	105.02079	648.37377	105.02079
5900.00000	104.67380	645.77990	104.67380
5950.00000	104.36239	643.52144	104.36239
6000.00000	104.06487	641.35422	104.06487
6050.00000	103.78226	639.06944	103.78226
6100.00000	103.49017	636.78351	103.49017
6150.00000	103.17179	634.66000	103.17179
6200.00000	102.86675	632.78332	102.86675
6250.00000	102.57280	630.95120	102.57280
6300.00000	102.27354	629.20454	102.27354
6350.00000	101.98179	627.66465	101.98179
6400.00000	101.69184	626.19745	101.69184
6450.00000	101.43104	624.92763	101.43104
6500.00000	101.17922	623.89971	101.17922
6550.00000	100.97731	622.96472	100.97731
6600.00000	100.76955	621.89947	100.76955
6650.00000	100.57259	620.95275	100.57259
6700.00000	100.37043	620.25309	100.37043
6750.00000	100.18983	620.10321	100.18983
6800.00000	100.12725	619.83526	100.12725
6850.00000	100.13932	619.51953	100.13932
6900.00000	100.23189	618.84334	100.23189
6950.00000	100.33980	617.52657	100.33980
7000.00000	100.41527	615.47401	100.41527
7050.00000	100.41772	613.00722	100.41772
7100.00000	100.36306	610.50544	100.36306
7150.00000	100.18365	608.26945	100.18365
7200.00000	99.98872	606.36775	99.98872
7250.00000	99.77080	604.94822	99.77080
7300.00000	99.54418	604.03559	99.54418
7350.00000	99.34988	603.54311	99.34988
7400.00000	99.19041	603.48978	99.19041
7450.00000	99.11581	603.66713	99.11581
7500.00000	99.12014	603.96769	99.12014
7550.00000	99.18762	603.99424	99.18762
7600.00000	99.33474	604.05449	99.33474
7650.00000	99.53987	603.71209	99.53987
7700.00000	99.74043	603.06846	99.74043
7750.00000	99.97807	602.12512	99.97807
7800.00000	100.23730	600.71538	100.23730
7850.00000	100.48541	599.04767	100.48541
7900.00000	100.71698	597.04114	100.71698
7950.00000	100.90662	595.05492	100.90662
8000.00000	101.12345	592.96305	101.12345
8050.00000	101.28858	590.73235	101.28858
8100.00000	101.47876	588.50478	101.47876
8150.00000	101.66425	586.09786	101.66425
8200.00000	101.83590	583.63465	101.83590
8250.00000	101.99324	581.08957	101.99324
8300.00000	102.17865	578.32390	102.17865
8350.00000	102.32002	575.61223	102.32002
8400.00000	102.48588	572.95504	102.48588
8450.00000	102.62723	569.99913	102.62723
8500.00000	102.74579	567.01264	102.74579
8550.00000	102.90894	563.97345	102.90894
8600.00000	103.02201	561.07444	103.02201
8650.00000	103.15519	557.89213	103.15519
8700.00000	103.26024	554.38400	103.26024
8750.00000	103.31044	550.99759	103.31044
8800.00000	103.36612	547.53277	103.36612
8850.00000	103.45317	544.09689	103.45317
8900.00000	103.44988	540.49301	103.44988
8950.00000	103.46660	536.80508	103.46660
9000.00000	103.39411	533.03464	103.39411
9050.00000	103.33945	529.56919	103.33945
9100.00000	103.27896	526.12654	103.27896
9150.00000	103.22822	522.26155	103.22822
9200.00000	103.05200	518.60633	103.05200
9250.00000	102.88182	515.28618	102.88182
9300.00000	102.74473	511.60847	102.74473
9350.00000	102.53593	508.18585	102.53593
9400.00000	102.32727	504.78099	102.32727
9450.00000	102.12407	501.56268	102.12407
9500.00000	101.87798	498.40065	101.87798
9550.00000	101.64599	495.86048	101.64599
9600.00000	101.43479	493.09634	101.43479
9650.00000	101.27565	490.66181	101.27565
9700.00000	101.01683	487.99243	101.01683
9750.00000	100.81110	485.79457	100.81110
9800.00000	100.55253	483.70469	100.55253
9850.00000	100.33210	482.07143	100.33210
9900.00000	100.16319	480.80719	100.16319
9950.00000	100.01653	479.27883	100.01653
10000.00000	99.88936	478.03823	99.88936
10050.00000	99.74577	476.67904	99.74577
10100.00000	99.72728	475.31985	99.72728
10150.00000	99.62513	473.35340	99.62513
10200.00000	99.47996	471.77509	99.47996
10250.00000	99.31899	470.56274	99.31899
10300.00000	99.24299	469.26005	99.24299
10350.00000	99.19777	467.88656	99.19777
10400.00000	99.08453	466.19184	99.08453
10450.00000	99.06771	464.58889	99.06771
10500.00000	99.05921	462.72561	99.05921
10550.00000	99.04229	461.21617	99.04229
10600.00000	99.13201	458.84755	99.13201
10650.00000	99.13423	456.82546	99.13423
10700.00000	99.16676	454.32846	99.16676
10750.00000	99.20401	452.14171	99.20401
10800.00000	99.30867	449.42251	99.30867
10850.00000	99.37696	446.71550	99.37696
10900.00000	99.44581	443.87781	99.44581
10950.00000	99.49070	441.08324	99.49070
11000.00000	99.59245	437.99884	99.59245
11050.00000	99.57088	434.77775	99.57088
11100.00000	99.60406	431.69814	99.60406
11150.00000	99.56293	428.22746	99.56293
11200.00000	99.52477	424.82512	99.52477
11250.00000	99.39507	420.86348	99.39507
11300.00000	99.24921	417.39125	99.24921
11350.00000	99.05866	413.42068	99.05866
11400.00000	98.82244	409.46996	98.82244
11450.00000	98.58043	405.48985	98.58043
11500.00000	98.28814	401.55168	98.28814
11550.00000	97.94709	397.67773	97.94709
11600.00000	97.60193	394.09931	97.60193
11650.00000	97.22046	390.40642	97.22046
11700.00000	96.86374	387.11499	96.86374
11750.00000	96.48885	384.11085	96.48885
11800.00000	96.10552	381.40956	96.10552
11850.00000	95.75841	379.02586	95.75841
11900.00000	95.33209	376.92698	95.33209
11950.00000	94.95981	375.18967	94.95981
12000.00000	94.61998	373.75010	94.61998
12050.00000	94.18217	372.33011	94.18217
12100.00000	93.70106	371.15722	93.70106
12150.00000	93.17392	369.86358	93.17392
12200.00000	92.72145	368.77233	92.72145
12250.00000	92.23166	368.16692	92.23166
12300.00000	91.64542	367.40686	91.64542
12350.00000	91.19189	366.96137	91.19189
12400.00000	90.68586	365.83935	90.68586
12450.00000	90.28110	364.91575	90.28110
12500.00000	89.93750	364.98124	89.93750
12550.00000	89.54644	364.66061	89.54644
12600.00000	89.22974	363.33941	89.22974
12650.00000	88.98160	363.84556	88.98160
12700.00000	88.56011	363.59723	88.56011
12750.00000	88.29235	364.81652	88.29235
12800.00000	88.12054	364.42577	88.12054
12850.00000	87.72399	365.68515	87.72399
12900.00000	87.47266	365.46057	87.47266
12950.00000	87.20232	364.10504	87.20232
13000.00000	86.91945	363.93372	86.91945
13050.00000	86.71949	363.87198	86.71949
13100.00000	86.60116	362.21699	86.60116
13150.00000	86.60797	360.98802	86.60797
13200.00000	86.76816	359.45850	86.76816
13250.00000	87.19500	356.16334	87.19500
13300.00000	87.80023	358.07903	87.80023
13350.00000	88.80190	357.45627	88.80190
13400.00000	89.76584	362.38118	89.76584
13450.00000	90.35587	373.19588	90.35587
13500.00000	89.88144	388.64731	89.88144
13550.00000	88.49581	396.78468	88.49581
13600.00000	86.88519	401.28575	86.88519
13650.00000	85.25465	401.29623	85.25465
13700.00000	84.01138	397.67104	84.01138
13750.00000	82.99552	391.31427	82.99552
13800.00000	82.67505	383.43803	82.67505
13850.00000	82.90295	377.18219	82.90295
13900.00000	83.25000	369.00614	83.25000
13950.00000	84.19128	364.20918	84.19128
14000.00000	85.64535	362.75229	85.64535
14050.00000	87.42752	364.10140	87.42752
14100.00000	89.51148	368.13588	89.51148
14150.00000	91.14175	381.34128	91.14175
14200.00000	91.14686	397.88946	91.14686
14250.00000	89.86183	410.53570	89.86183
14300.00000	88.35329	416.86055	88.35329
14350.00000	87.18077	415.36309	87.18077
14400.00000	86.56124	414.48530	86.56124
14450.00000	85.91034	411.70011	85.91034
14500.00000	85.76788	407.06706	85.76788
14550.00000	86.05543	401.20047	86.05543
14600.00000	86.22040	398.05507	86.22040
14650.00000	86.92743	394.62744	86.92743
14700.00000	87.83923	388.54262	87.83923
14750.00000	88.78444	385.14265	88.78444
14800.00000	89.79212	385.17337	89.79212
14850.00000	91.13550	385.95327	91.13550
14900.00000	92.25598	388.63872	92.25598
14950.00000	93.01287	393.35205	93.01287
15000.00000	93.34422	396.83448	93.34422
15050.00000	93.24266	402.00793	93.24266
15100.00000	93.25261	403.02308	93.25261
15150.00000	92.87584	402.83952	92.87584
15200.00000	92.95410	400.35066	92.95410
15250.00000	92.81747	397.11181	92.81747
15300.00000	92.91014	393.77755	92.91014
15350.00000	93.29145	390.31187	93.29145
15400.00000	93.74624	386.76274	93.74624
15450.00000	94.28053	382.32839	94.28053
15500.00000	95.04498	379.30680	95.04498
15550.00000	95.72917	377.10899	95.72917
15600.00000	96.62740	375.65622	96.62740
15650.00000	97.38408	374.85640	97.38408
15700.00000	97.87172	373.99631	97.87172
15750.00000	98.45897	374.25451	98.45897
15800.00000	98.67544	373.48091	98.67544
15850.00000	98.98736	372.50765	98.98736
15900.00000	99.06120	369.40040	99.06120
15950.00000	99.20204	366.22928	99.20204
16000.00000	99.28142	362.16779	99.28142
16050.00000	99.62802	358.00621	99.62802
16100.00000	99.81222	353.49936	99.81222
16150.00000	100.19324	348.70923	100.19324
16200.00000	100.56203	345.37013	100.56203
16250.00000	100.96688	340.87390	100.96688
16300.00000	101.31442	337.60366	101.31442
16350.00000	101.68616	334.99721	101.68616
16400.00000	101.92105	332.42183	101.92105
16450.00000	102.19190	330.07955	102.19190
16500.00000	102.31915	327.34151	102.31915
16550.00000	102.40159	324.68504	102.40159
16600.00000	102.46965	321.40945	102.46965
16650.00000	102.49292	318.06300	102.49292
16700.00000	102.56066	314.49919	102.56066
16750.00000	102.62841	311.12851	102.62841
16800.00000	102.71393	307.60510	102.71393
16850.00000	102.91091	303.94239	102.91091
16900.00000	103.03634	301.36697	103.03634
16950.00000	103.16064	298.05691	103.16064
17000.00000	103.30614	295.35006	103.30614
17050.00000	103.44158	292.92615	103.44158
17100.00000	103.53314	290.75589	103.53314
17150.00000	103.61595	288.33623	103.61595
17200.00000	103.64279	285.66394	103.64279
17250.00000	103.68192	283.04291	103.68192
17300.00000	103.73077	280.27400	103.73077
17350.00000	103.81852	277.42570	103.81852
17400.00000	103.90013	274.25273	103.90013
17450.00000	104.03160	271.45691	104.03160
17500.00000	104.11319	268.53689	104.11319
17550.00000	104.22746	265.71159	104.22746
17600.00000	104.39179	263.30411	104.39179
17650.00000	104.49951	260.88361	104.49951
17700.00000	104.66403	258.42797	104.66403
17750.00000	104.76177	255.89324	104.76177
17800.00000	104.84675	253.37308	104.84675
17850.00000	104.97175	250.97269	104.97175
17900.00000	105.08529	248.33252	105.08529
17950.00000	105.17006	245.67808	105.17006
18000.00000	105.29350	242.76397	105.29350
18050.00000	105.40498	239.98686	105.40498
18100.00000	105.50097	237.07356	105.50097
18150.00000	105.63285	234.05065	105.63285
18200.00000	105.75409	231.05950	105.75409
18250.00000	105.87810	227.93390	105.87810
18300.00000	105.97207	224.89163	105.97207
18350.00000	106.08822	221.77208	106.08822
18400.00000	106.16735	218.65577	106.16735
18450.00000	106.24006	215.64845	106.24006
18500.00000	106.35668	212.55282	106.35668
18550.00000	106.43787	209.12098	106.43787
18600.00000	106.46024	206.02311	106.46024
18650.00000	106.57298	202.71561	106.57298
18700.00000	106.61130	199.52205	106.61130
18750.00000	106.62765	196.29692	106.62765
18800.00000	106.63635	192.99965	106.63635
18850.00000	106.66081	189.94247	106.66081
18900.00000	106.60451	186.85321	106.60451
18950.00000	106.60295	183.58220	106.60295
19000.00000	106.55696	180.46665	106.55696
19050.00000	106.52947	177.28991	106.52947
19100.00000	106.48588	174.23159	106.48588
19150.00000	106.46851	171.52789	106.46851
19200.00000	106.43021	168.47255	106.43021
19250.00000	106.36498	165.88438	106.36498
19300.00000	106.34088	163.25194	106.34088
19350.00000	106.32238	160.44235	106.32238
19400.00000	106.22805	157.97544	106.22805
19450.00000	106.21360	155.21581	106.21360
19500.00000	106.19548	152.77295	106.19548
19550.00000	106.17621	150.32226	106.17621
19600.00000	106.13521	147.75323	106.13521
19650.00000	106.11205	145.25506	106.11205
19700.00000	106.12017	142.64701	106.12017
19750.00000	106.11261	140.25954	106.11261
19800.00000	106.09785	138.06617	106.09785
19850.00000	106.08580	135.41316	106.08580
19900.00000	106.09223	132.95543	106.09223
19950.00000	106.06854	130.64550	106.06854
20000.00000	106.05918	127.82741	106.05918
20050.00000	106.07789	125.44748	106.07789
20100.00000	106.09028	122.99823	106.09028
20150.00000	106.10477	120.34666	106.10477
20200.00000	106.13949	117.81217	106.13949
20250.00000	106.14837	115.56355	106.14837
20300.00000	106.15736	112.95678	106.15736
20350.00000	106.18888	110.41107	106.18888
20400.00000	106.20773	107.82119	106.20773
20450.00000	106.22665	105.01874	106.22665
20500.00000	106.23379	102.13195	106.23379
20550.00000	106.24036	99.37464	106.24036
20600.00000	106.24811	96.66431	106.24811
20650.00000	106.27542	93.62996	106.27542
20700.00000	106.25854	91.01915	106.25854
20750.00000	106.23594	88.19342	106.23594
20800.00000	106.20292	85.39482	106.20292
20850.00000	106.18046	82.29866	106.18046
20900.00000	106.13263	79.60693	106.13263
20950.00000	106.11657	76.74853	106.11657
21000.00000	106.09806	73.79837	106.09806
21050.00000	106.04231	71.00097	106.04231
21100.00000	106.00739	68.20801	106.00739
21150.00000	105.92033	65.69942	105.92033
21200.00000	105.88601	62.90773	105.88601
21250.00000	105.76786	60.18807	105.76786
21300.00000	105.69660	57.20154	105.69660
21350.00000	105.62330	54.77849	105.62330
21400.00000	105.53411	51.72029	105.53411
21450.00000	105.51437	49.26945	105.51437
21500.00000	105.44646	46.97969	105.44646
21550.00000	105.36789	44.49952	105.36789
21600.00000	105.29739	41.64669	105.29739
21650.00000	105.22448	39.44127	105.22448
21700.00000	105.08917	36.60254	105.08917
21750.00000	105.03037	33.91955	105.03037
21800.00000	104.92918	31.45286	104.92918
21850.00000	104.87033	29.08780	104.87033
21900.00000	104.77486	26.66676	104.77486
21950.00000	104.70299	24.36323	104.70299
22000.00000	104.54681	22.18757	104.54681
22050.00000	104.45462	20.19575	104.45462
22100.00000	104.37220	18.26480	104.37220
22150.00000	104.30037	16.11853	104.30037
22200.00000	104.25387	13.88570	104.25387
22250.00000	104.23446	11.75394	104.23446
22300.00000	104.18390	 9.32442	104.18390
22350.00000	104.13389	 7.10985	104.13389
22400.00000	104.08122	 4.85494	104.08122
22450.00000	104.08539	 2.61801	104.08539
22500.00000	103.99784	 0.19216	103.99784
22550.00000	103.97450	-2.21479	103.97450
22600.00000	103.92044	-4.52768	103.92044
22650.00000	103.84090	-6.53063	103.84090
22700.00000	103.78384	-8.68827	103.78384
22750.00000	103.70695	-11.17055	103.70695
22800.00000	103.68740	-13.45765	103.68740
22850.00000	103.63517	-15.63984	103.63517
22900.00000	103.59851	-17.60556	103.59851
22950.00000	103.59957	-19.94058	103.59957
23000.00000	103.50803	-22.20194	103.50803
23050.00000	103.46342	-24.38441	103.46342
23100.00000	103.44715	-26.60726	103.44715
23150.00000	103.38002	-28.96114	103.38002
23200.00000	103.34367	-31.61541	103.34367
23250.00000	103.39529	-34.05176	103.39529
