---ACOUSTIC CALIBRATION---
Filename: C:\Data\CL0809 DATA\CL0809100\RightPrimary.calib
Date: 8/9/2019 9:01:59 AM
Format: 4
Probe Tube Correction File: C:\Data\Probe Tube Calibrations\74_ProbeTube.calib
Experiment VIs: 2128
EPL_CFTS.exe V15.0.1f5 (2015)
DAQmx V15.1

Attenuation (dB): 40.000000
Min Freq (Hz): 50.000000
Max Freq (Hz): 99950.000000
Freq Step (Hz): 50.000000
Sample Rate (Hz): 200000.000000
[Smoothing]
Method=None
MA.Iterations=0
MA.Length=0
Loess.Length=0
Loess.Type=Linear
Loess.Robust=FALSE


Freq(Hz)	Mag(dB)	Phase(deg)	Unsmoothed(dB)

50.00000	90.60431	87.32496	90.60431
100.00000	63.80047	192.70298	63.80047
150.00000	66.95399	271.32903	66.95399
200.00000	60.41095	448.11169	60.41095
250.00000	59.21978	625.58318	59.21978
300.00000	67.16538	838.89339	67.16538
350.00000	62.98074	991.87631	62.98074
400.00000	59.88854	1081.44966	59.88854
450.00000	63.63511	1103.99213	63.63511
500.00000	62.38459	1217.45807	62.38459
550.00000	71.54087	1155.08482	71.54087
600.00000	68.62190	1131.94729	68.62190
650.00000	75.18256	1124.12819	75.18256
700.00000	74.69248	1122.25457	74.69248
750.00000	78.48664	1092.28258	78.48664
800.00000	79.40448	1086.35665	79.40448
850.00000	77.50240	1080.11731	77.50240
900.00000	78.27983	1090.17782	78.27983
950.00000	81.32934	1087.81607	81.32934
1000.00000	83.09382	1091.61937	83.09382
1050.00000	85.96292	1085.79470	85.96292
1100.00000	89.05781	1074.17736	89.05781
1150.00000	91.05159	1060.13190	91.05159
1200.00000	92.44377	1045.47936	92.44377
1250.00000	93.06152	1031.18393	93.06152
1300.00000	93.38211	1022.80298	93.38211
1350.00000	94.31902	1016.46110	94.31902
1400.00000	95.41070	1007.56179	95.41070
1450.00000	96.15078	995.95934	96.15078
1500.00000	96.59076	985.66627	96.59076
1550.00000	96.65123	975.70737	96.65123
1600.00000	97.05560	971.09971	97.05560
1650.00000	97.59887	968.20580	97.59887
1700.00000	101.47493	952.86927	101.47493
1750.00000	98.56936	932.87854	98.56936
1800.00000	98.34326	926.86601	98.34326
1850.00000	98.07720	918.66772	98.07720
1900.00000	97.84987	911.45595	97.84987
1950.00000	97.22905	906.13736	97.22905
2000.00000	96.70575	901.89897	96.70575
2050.00000	96.31028	901.62491	96.31028
2100.00000	97.09345	901.17833	97.09345
2150.00000	98.00894	892.96876	98.00894
2200.00000	97.99484	880.45508	97.99484
2250.00000	97.08098	872.46342	97.08098
2300.00000	96.45770	870.62269	96.45770
2350.00000	96.68134	866.05902	96.68134
2400.00000	96.68873	859.29434	96.68873
2450.00000	96.11019	851.21361	96.11019
2500.00000	95.19946	848.22901	95.19946
2550.00000	94.99457	845.26195	94.99457
2600.00000	94.68146	841.54700	94.68146
2650.00000	94.26592	838.31100	94.26592
2700.00000	93.89229	833.92612	93.89229
2750.00000	93.42814	830.80879	93.42814
2800.00000	92.99452	827.39317	92.99452
2850.00000	92.46406	824.72517	92.46406
2900.00000	91.99133	822.31400	91.99133
2950.00000	91.56256	820.49438	91.56256
3000.00000	91.04954	819.64399	91.04954
3050.00000	90.67176	818.83671	90.67176
3100.00000	90.39302	818.01147	90.39302
3150.00000	89.98657	817.32232	89.98657
3200.00000	89.82896	815.89597	89.82896
3250.00000	89.66805	814.48564	89.66805
3300.00000	89.35336	812.26127	89.35336
3350.00000	89.14114	811.21884	89.14114
3400.00000	88.67312	809.98710	88.67312
3450.00000	88.26434	808.94683	88.26434
3500.00000	87.85227	809.33351	87.85227
3550.00000	87.94114	807.81319	87.94114
3600.00000	87.37327	803.92989	87.37327
3650.00000	86.70623	802.61243	86.70623
3700.00000	85.76408	801.69915	85.76408
3750.00000	84.81321	799.16654	84.81321
3800.00000	83.83808	800.24248	83.83808
3850.00000	82.09881	797.57823	82.09881
3900.00000	80.03784	804.26130	80.03784
3950.00000	77.78020	822.08002	77.78020
4000.00000	76.88015	840.75050	76.88015
4050.00000	77.72878	872.49081	77.72878
4100.00000	80.66039	890.90592	80.66039
4150.00000	84.23967	896.68355	84.23967
4200.00000	86.83635	897.43455	86.83635
4250.00000	88.26831	889.57512	88.26831
4300.00000	89.47745	890.93067	89.47745
4350.00000	90.97238	890.62156	90.97238
4400.00000	92.47883	887.92472	92.47883
4450.00000	93.58454	883.18785	93.58454
4500.00000	94.63871	879.55797	94.63871
4550.00000	95.45828	876.36565	95.45828
4600.00000	96.41474	872.86189	96.41474
4650.00000	97.27916	869.41821	97.27916
4700.00000	98.01325	865.98450	98.01325
4750.00000	98.74683	863.40602	98.74683
4800.00000	99.64267	861.30259	99.64267
4850.00000	100.61748	858.46699	100.61748
4900.00000	101.64967	854.55421	101.64967
4950.00000	102.70255	850.65358	102.70255
5000.00000	103.80776	845.84904	103.80776
5050.00000	104.96428	840.58296	104.96428
5100.00000	106.23997	834.79767	106.23997
5150.00000	107.76270	827.91271	107.76270
5200.00000	109.69600	818.30844	109.69600
5250.00000	112.24102	801.86441	112.24102
5300.00000	114.57909	765.32786	114.57909
5350.00000	111.32743	716.43772	111.32743
5400.00000	104.67919	698.99357	104.67919
5450.00000	98.70599	710.15292	98.70599
5500.00000	96.91125	738.84574	96.91125
5550.00000	97.98684	747.55985	97.98684
5600.00000	96.75005	747.30765	96.75005
5650.00000	95.61501	765.35434	95.61501
5700.00000	97.15529	779.77339	97.15529
5750.00000	99.00577	784.25479	99.00577
5800.00000	100.47925	784.42673	100.47925
5850.00000	101.67564	782.50712	101.67564
5900.00000	102.68422	779.33913	102.68422
5950.00000	103.55957	775.70337	103.55957
6000.00000	104.29288	771.25912	104.29288
6050.00000	104.83474	766.31027	104.83474
6100.00000	105.17780	761.63367	105.17780
6150.00000	105.31391	757.85689	105.31391
6200.00000	105.45474	755.70666	105.45474
6250.00000	105.69688	754.60153	105.69688
6300.00000	106.13171	754.04582	106.13171
6350.00000	106.75709	753.36184	106.75709
6400.00000	107.53934	752.16421	107.53934
6450.00000	108.43933	750.03069	108.43933
6500.00000	109.38619	746.89569	109.38619
6550.00000	110.37570	742.79356	110.37570
6600.00000	111.34835	737.77432	111.34835
6650.00000	112.30198	731.92790	112.30198
6700.00000	113.24590	725.07816	113.24590
6750.00000	114.13493	717.08541	114.13493
6800.00000	114.90909	707.98985	114.90909
6850.00000	115.52452	697.97439	115.52452
6900.00000	115.93612	687.18075	115.93612
6950.00000	116.09959	676.15841	116.09959
7000.00000	116.01567	665.45304	116.01567
7050.00000	115.75613	655.66686	115.75613
7100.00000	115.37915	646.84848	115.37915
7150.00000	114.94582	638.89719	114.94582
7200.00000	114.47595	631.66182	114.47595
7250.00000	113.98560	625.20788	113.98560
7300.00000	113.50409	619.43123	113.50409
7350.00000	113.05799	614.14630	113.05799
7400.00000	112.65532	609.31661	112.65532
7450.00000	112.31027	604.45446	112.31027
7500.00000	111.95547	599.46646	111.95547
7550.00000	111.56336	594.38929	111.56336
7600.00000	111.12048	589.79937	111.12048
7650.00000	110.69132	585.42274	110.69132
7700.00000	110.24598	581.46207	110.24598
7750.00000	109.81352	577.78033	109.81352
7800.00000	109.38298	574.33264	109.38298
7850.00000	108.98795	571.28167	108.98795
7900.00000	108.60316	568.34667	108.60316
7950.00000	108.25579	565.69894	108.25579
8000.00000	107.94759	563.18962	107.94759
8050.00000	107.64188	560.74640	107.64188
8100.00000	107.38750	558.45815	107.38750
8150.00000	107.14749	556.18677	107.14749
8200.00000	106.96025	553.78976	106.96025
8250.00000	106.79234	551.37456	106.79234
8300.00000	106.64063	548.84968	106.64063
8350.00000	106.45754	546.45354	106.45754
8400.00000	106.33322	544.08748	106.33322
8450.00000	106.21852	541.60585	106.21852
8500.00000	106.12962	539.01352	106.12962
8550.00000	106.04230	536.34729	106.04230
8600.00000	105.95895	533.60689	105.95895
8650.00000	105.90813	530.75502	105.90813
8700.00000	105.81315	527.58093	105.81315
8750.00000	105.73045	524.59253	105.73045
8800.00000	105.64373	521.42111	105.64373
8850.00000	105.58093	518.10273	105.58093
8900.00000	105.47333	514.67413	105.47333
8950.00000	105.36877	511.18692	105.36877
9000.00000	105.18109	507.71650	105.18109
9050.00000	105.06856	504.46615	105.06856
9100.00000	104.94618	501.10204	104.94618
9150.00000	104.82154	497.19182	104.82154
9200.00000	104.57999	493.72379	104.57999
9250.00000	104.35544	490.58060	104.35544
9300.00000	104.18660	486.86532	104.18660
9350.00000	103.92842	483.48343	103.92842
9400.00000	103.64829	480.01088	103.64829
9450.00000	103.38494	476.84860	103.38494
9500.00000	103.07645	473.86466	103.07645
9550.00000	102.78073	471.19433	102.78073
9600.00000	102.55629	468.63213	102.55629
9650.00000	102.32343	465.82796	102.32343
9700.00000	102.02648	463.03222	102.02648
9750.00000	101.73388	460.52625	101.73388
9800.00000	101.42279	458.22865	101.42279
9850.00000	101.08620	455.75325	101.08620
9900.00000	100.76363	454.09313	100.76363
9950.00000	100.32461	452.55818	100.32461
10000.00000	99.90462	452.74137	99.90462
10050.00000	99.74580	455.35428	99.74580
10100.00000	100.40938	456.29947	100.40938
10150.00000	100.87618	451.76487	100.87618
10200.00000	100.88186	447.00620	100.88186
10250.00000	100.74150	443.37521	100.74150
10300.00000	100.61494	440.38624	100.61494
10350.00000	100.46924	437.64769	100.46924
10400.00000	100.30714	434.98174	100.30714
10450.00000	100.19686	432.38458	100.19686
10500.00000	100.13855	429.89575	100.13855
10550.00000	100.08854	427.45457	100.08854
10600.00000	100.10291	424.40886	100.10291
10650.00000	100.04560	421.51157	100.04560
10700.00000	100.05156	418.40926	100.05156
10750.00000	100.04633	415.48922	100.04633
10800.00000	100.06753	411.84834	100.06753
10850.00000	100.08374	408.31762	100.08374
10900.00000	100.05980	404.58872	100.05980
10950.00000	100.02983	400.63003	100.02983
11000.00000	100.04251	396.38928	100.04251
11050.00000	99.90225	392.27560	99.90225
11100.00000	99.85790	388.02693	99.85790
11150.00000	99.74130	383.42311	99.74130
11200.00000	99.62003	378.78819	99.62003
11250.00000	99.37550	373.74515	99.37550
11300.00000	99.13733	369.14861	99.13733
11350.00000	98.86608	363.93812	98.86608
11400.00000	98.52918	359.12649	98.52918
11450.00000	98.17868	354.00674	98.17868
11500.00000	97.76235	349.03579	97.76235
11550.00000	97.32035	344.03481	97.32035
11600.00000	96.80532	339.38765	96.80532
11650.00000	96.30668	334.80269	96.30668
11700.00000	95.81195	330.22406	95.81195
11750.00000	95.24885	325.89703	95.24885
11800.00000	94.69621	322.09420	94.69621
11850.00000	94.16837	318.22057	94.16837
11900.00000	93.57937	314.88435	93.57937
11950.00000	93.04785	311.44260	93.04785
12000.00000	92.55113	308.34242	92.55113
12050.00000	91.92303	305.60624	91.92303
12100.00000	91.27679	302.52440	91.27679
12150.00000	90.64497	299.96275	90.64497
12200.00000	90.08670	297.03118	90.08670
12250.00000	89.43527	295.03594	89.43527
12300.00000	88.59699	292.26077	88.59699
12350.00000	87.94243	290.59054	87.94243
12400.00000	87.22444	288.05059	87.22444
12450.00000	86.62914	285.84982	86.62914
12500.00000	86.03436	283.44682	86.03436
12550.00000	85.25757	282.42688	85.25757
12600.00000	84.65520	279.60408	84.65520
12650.00000	84.05904	277.75042	84.05904
12700.00000	83.31661	275.83849	83.31661
12750.00000	82.77393	274.19880	82.77393
12800.00000	82.25649	271.80208	82.25649
12850.00000	81.49424	269.26926	81.49424
12900.00000	80.97333	265.23572	80.97333
12950.00000	80.52542	263.43442	80.52542
13000.00000	79.90857	260.97527	79.90857
13050.00000	79.42103	256.17326	79.42103
13100.00000	79.29636	251.51457	79.29636
13150.00000	78.88666	246.89573	78.88666
13200.00000	78.69869	239.98746	78.69869
13250.00000	79.07370	232.38985	79.07370
13300.00000	79.50999	227.63766	79.50999
13350.00000	80.44641	225.68574	80.44641
13400.00000	81.24478	221.38445	81.24478
13450.00000	81.42887	228.50053	81.42887
13500.00000	81.52239	237.08418	81.52239
13550.00000	80.34529	237.67834	80.34529
13600.00000	79.34281	238.08392	79.34281
13650.00000	77.97637	231.98613	77.97637
13700.00000	77.23010	221.76690	77.23010
13750.00000	76.59938	211.05898	76.59938
13800.00000	77.00698	197.68801	77.00698
13850.00000	77.25888	187.67718	77.25888
13900.00000	77.84143	173.60959	77.84143
13950.00000	79.36642	161.93314	79.36642
14000.00000	81.27060	154.85771	81.27060
14050.00000	83.25011	147.81244	83.25011
14100.00000	85.84020	146.04528	85.84020
14150.00000	87.95025	153.55535	87.95025
14200.00000	88.40847	163.58708	88.40847
14250.00000	87.72362	170.18165	87.72362
14300.00000	86.69789	171.97723	86.69789
14350.00000	86.10784	168.63292	86.10784
14400.00000	85.80353	162.86634	85.80353
14450.00000	85.52283	155.98315	85.52283
14500.00000	85.62234	150.50179	85.62234
14550.00000	86.25561	141.77496	86.25561
14600.00000	86.74875	135.20548	86.74875
14650.00000	87.46950	128.31616	87.46950
14700.00000	88.36448	120.77508	88.36448
14750.00000	89.63356	114.66573	89.63356
14800.00000	90.68239	110.66037	90.68239
14850.00000	92.01458	107.81723	92.01458
14900.00000	93.37169	107.32891	93.37169
14950.00000	94.36969	108.48384	94.36969
15000.00000	94.89853	109.66796	94.89853
15050.00000	95.18646	111.08204	95.18646
15100.00000	95.27092	110.49106	95.27092
15150.00000	95.24015	107.41919	95.24015
15200.00000	95.27133	103.34864	95.27133
15250.00000	95.33863	98.50141	95.33863
15300.00000	95.49467	93.96219	95.49467
15350.00000	95.88041	88.25688	95.88041
15400.00000	96.35120	82.06416	96.35120
15450.00000	96.93029	76.31249	96.93029
15500.00000	97.68254	71.09156	97.68254
15550.00000	98.40547	66.83787	98.40547
15600.00000	99.19446	63.63125	99.19446
15650.00000	99.95973	60.90147	99.95973
15700.00000	100.41430	59.24571	100.41430
15750.00000	100.97625	57.22990	100.97625
15800.00000	101.34296	55.67989	101.34296
15850.00000	101.71253	53.24008	101.71253
15900.00000	101.83271	49.48799	101.83271
15950.00000	102.03994	44.99430	102.03994
16000.00000	102.26444	40.14505	102.26444
16050.00000	102.60497	34.76395	102.60497
16100.00000	102.89010	29.38829	102.89010
16150.00000	103.26130	23.60914	103.26130
16200.00000	103.69688	18.75150	103.69688
16250.00000	104.10203	12.90917	104.10203
16300.00000	104.53409	 8.17850	104.53409
16350.00000	104.91560	 3.61111	104.91560
16400.00000	105.21217	-0.13666	105.21217
16450.00000	105.49904	-3.94739	105.49904
16500.00000	105.63187	-8.07641	105.63187
16550.00000	105.72091	-11.78123	105.72091
16600.00000	105.81336	-16.29767	105.81336
16650.00000	105.81502	-20.75207	105.81502
16700.00000	105.86367	-25.75360	105.86367
16750.00000	105.87895	-30.33441	105.87895
16800.00000	105.90862	-34.77597	105.90862
16850.00000	106.04594	-39.83025	106.04594
16900.00000	106.15749	-43.81319	106.15749
16950.00000	106.23373	-47.92781	106.23373
17000.00000	106.31477	-51.66236	106.31477
17050.00000	106.39706	-55.15942	106.39706
17100.00000	106.45873	-58.50766	106.45873
17150.00000	106.49032	-61.85258	106.49032
17200.00000	106.42414	-65.16195	106.42414
17250.00000	106.42878	-68.81043	106.42878
17300.00000	106.42545	-72.24463	106.42545
17350.00000	106.40273	-75.94600	106.40273
17400.00000	106.43590	-79.88445	106.43590
17450.00000	106.45783	-83.49027	106.45783
17500.00000	106.46339	-86.94256	106.46339
17550.00000	106.52223	-90.59372	106.52223
17600.00000	106.59172	-93.74030	106.59172
17650.00000	106.65871	-96.87806	106.65871
17700.00000	106.72723	-100.08258	106.72723
17750.00000	106.75701	-103.09456	106.75701
17800.00000	106.77652	-106.19077	106.77652
17850.00000	106.82516	-109.23352	106.82516
17900.00000	106.84076	-112.38090	106.84076
17950.00000	106.86618	-115.72312	106.86618
18000.00000	106.89641	-118.96113	106.89641
18050.00000	106.91459	-122.39761	106.91459
18100.00000	106.93095	-125.80923	106.93095
18150.00000	106.97355	-129.14927	106.97355
18200.00000	106.99350	-132.50364	106.99350
18250.00000	107.01401	-135.93711	107.01401
18300.00000	107.01610	-139.35139	107.01610
18350.00000	107.02606	-142.80659	107.02606
18400.00000	107.00785	-146.14576	107.00785
18450.00000	107.01365	-149.44256	107.01365
18500.00000	106.99565	-152.59112	106.99565
18550.00000	106.98626	-156.05378	106.98626
18600.00000	106.94168	-159.32325	106.94168
18650.00000	106.95571	-162.57694	106.95571
18700.00000	106.91924	-165.68341	106.91924
18750.00000	106.88231	-168.84728	106.88231
18800.00000	106.82546	-172.14958	106.82546
18850.00000	106.79108	-174.95506	106.79108
18900.00000	106.67401	-178.06723	106.67401
18950.00000	106.62211	-181.24089	106.62211
19000.00000	106.54005	-184.28203	106.54005
19050.00000	106.48140	-187.24362	106.48140
19100.00000	106.42422	-190.25733	106.42422
19150.00000	106.37556	-192.92368	106.37556
19200.00000	106.32722	-195.98322	106.32722
19250.00000	106.25870	-198.43305	106.25870
19300.00000	106.22060	-201.12577	106.22060
19350.00000	106.19062	-203.97011	106.19062
19400.00000	106.11587	-206.56442	106.11587
19450.00000	106.05638	-209.54539	106.05638
19500.00000	106.03623	-211.99323	106.03623
19550.00000	106.00092	-214.79919	106.00092
19600.00000	105.94666	-217.59154	105.94666
19650.00000	105.89833	-220.30932	105.89833
19700.00000	105.86322	-223.15854	105.86322
19750.00000	105.82346	-225.67702	105.82346
19800.00000	105.79607	-228.14786	105.79607
19850.00000	105.73618	-230.96073	105.73618
19900.00000	105.70018	-233.66597	105.70018
19950.00000	105.64291	-236.17152	105.64291
20000.00000	105.60052	-239.04493	105.60052
20050.00000	105.54174	-241.52296	105.54174
20100.00000	105.49824	-243.99773	105.49824
20150.00000	105.45955	-246.80971	105.45955
20200.00000	105.43969	-249.35363	105.43969
20250.00000	105.40842	-251.54841	105.40842
20300.00000	105.37824	-254.15931	105.37824
20350.00000	105.36416	-256.60213	105.36416
20400.00000	105.33702	-259.04392	105.33702
20450.00000	105.33067	-261.49825	105.33067
20500.00000	105.32606	-264.32601	105.32606
20550.00000	105.28178	-266.88465	105.28178
20600.00000	105.26658	-269.51002	105.26658
20650.00000	105.28313	-272.31737	105.28313
20700.00000	105.27707	-274.75372	105.27707
20750.00000	105.22921	-277.41480	105.22921
20800.00000	105.22780	-280.07125	105.22780
20850.00000	105.20813	-282.98072	105.20813
20900.00000	105.17698	-285.56063	105.17698
20950.00000	105.14603	-288.26166	105.14603
21000.00000	105.14418	-291.28224	105.14418
21050.00000	105.10193	-294.04016	105.10193
21100.00000	105.09360	-296.84280	105.09360
21150.00000	105.05802	-299.33357	105.05802
21200.00000	105.04371	-301.92087	105.04371
21250.00000	104.99527	-304.71059	104.99527
21300.00000	104.95203	-307.74052	104.95203
21350.00000	104.90258	-310.49491	104.90258
21400.00000	104.84277	-313.46419	104.84277
21450.00000	104.83689	-316.27082	104.83689
21500.00000	104.84565	-319.00382	104.84565
21550.00000	104.79225	-321.73333	104.79225
21600.00000	104.74147	-324.76712	104.74147
21650.00000	104.71189	-327.39102	104.71189
21700.00000	104.60638	-330.62034	104.60638
21750.00000	104.60016	-333.73599	104.60016
21800.00000	104.50141	-336.62325	104.50141
21850.00000	104.46044	-339.44107	104.46044
21900.00000	104.36607	-342.35069	104.36607
21950.00000	104.28979	-345.49892	104.28979
22000.00000	104.14529	-348.18460	104.14529
22050.00000	104.04517	-350.93019	104.04517
22100.00000	103.93729	-353.39750	103.93729
22150.00000	103.87213	-356.11343	103.87213
22200.00000	103.77391	-359.16395	103.77391
22250.00000	103.71538	-361.60261	103.71538
22300.00000	103.60946	-364.72647	103.60946
22350.00000	103.50747	-367.53386	103.50747
22400.00000	103.40200	-370.76968	103.40200
22450.00000	103.25674	-373.70769	103.25674
22500.00000	103.12081	-376.47140	103.12081
22550.00000	102.99259	-379.35799	102.99259
22600.00000	102.82911	-382.08884	102.82911
22650.00000	102.66749	-384.57080	102.66749
22700.00000	102.47223	-387.12464	102.47223
22750.00000	102.35949	-389.82309	102.35949
22800.00000	102.16004	-392.16840	102.16004
22850.00000	102.01924	-394.73324	102.01924
22900.00000	101.87136	-396.91319	101.87136
22950.00000	101.73495	-399.18846	101.73495
23000.00000	101.54079	-401.52502	101.54079
23050.00000	101.39372	-403.70032	101.39372
23100.00000	101.25291	-405.73665	101.25291
23150.00000	101.05393	-408.23248	101.05393
