---ACOUSTIC CALIBRATION---
Filename: C:\Data\CL0809 DATA\CL0809100\RightSecondary.calib
Date: 8/9/2019 9:00:47 AM
Format: 4
Probe Tube Correction File: C:\Data\Probe Tube Calibrations\74_ProbeTube.calib
Experiment VIs: 2128
EPL_CFTS.exe V15.0.1f5 (2015)
DAQmx V15.1

Attenuation (dB): 40.000000
Min Freq (Hz): 50.000000
Max Freq (Hz): 99950.000000
Freq Step (Hz): 50.000000
Sample Rate (Hz): 200000.000000
[Smoothing]
Method=None
MA.Iterations=0
MA.Length=0
Loess.Length=0
Loess.Type=Linear
Loess.Robust=FALSE


Freq(Hz)	Mag(dB)	Phase(deg)	Unsmoothed(dB)

50.00000	94.09827	138.76171	94.09827
100.00000	50.02228	295.52590	50.02228
150.00000	61.99050	461.55627	61.99050
200.00000	59.79561	521.23814	59.79561
250.00000	56.09841	738.67857	56.09841
300.00000	67.64549	849.85289	67.64549
350.00000	64.36077	1022.18935	64.36077
400.00000	64.45308	1083.19196	64.45308
450.00000	69.38477	1118.91387	69.38477
500.00000	73.14621	1227.89987	73.14621
550.00000	79.53035	1154.77852	79.53035
600.00000	77.71819	1116.43029	77.71819
650.00000	85.17221	1104.65593	85.17221
700.00000	84.87169	1102.56738	84.87169
750.00000	88.65085	1068.92662	88.65085
800.00000	90.25783	1052.98924	90.25783
850.00000	89.35784	1040.49530	89.35784
900.00000	89.73978	1034.65283	89.73978
950.00000	91.39465	1020.37508	91.39465
1000.00000	91.55442	1013.45065	91.55442
1050.00000	91.89768	999.09213	91.89768
1100.00000	91.54023	987.77717	91.54023
1150.00000	90.72829	981.81247	90.72829
1200.00000	89.86611	982.08433	89.86611
1250.00000	89.70764	986.43946	89.70764
1300.00000	90.68876	990.34197	90.68876
1350.00000	91.73890	988.69974	91.73890
1400.00000	92.32724	987.07101	92.32724
1450.00000	93.01043	987.22476	93.01043
1500.00000	94.26044	986.75049	94.26044
1550.00000	95.53011	982.91635	95.53011
1600.00000	96.95909	980.24915	96.95909
1650.00000	98.30991	976.90249	98.30991
1700.00000	102.68662	960.86873	102.68662
1750.00000	99.96206	940.04220	99.96206
1800.00000	99.88106	934.15794	99.88106
1850.00000	99.75278	926.22308	99.75278
1900.00000	99.73605	919.20852	99.73605
1950.00000	99.27687	913.13489	99.27687
2000.00000	98.80297	907.01773	98.80297
2050.00000	97.95058	903.75678	97.95058
2100.00000	97.39793	907.21269	97.39793
2150.00000	98.44641	908.86556	98.44641
2200.00000	99.07628	900.38163	99.07628
2250.00000	98.67008	894.40544	98.67008
2300.00000	98.40503	892.26367	98.40503
2350.00000	98.40969	888.69588	98.40969
2400.00000	98.40316	886.43168	98.40316
2450.00000	98.16334	882.32757	98.16334
2500.00000	97.67894	882.71226	97.67894
2550.00000	97.87423	882.58359	97.87423
2600.00000	98.04803	881.35121	98.04803
2650.00000	98.18094	880.95733	98.18094
2700.00000	98.40935	879.11002	98.40935
2750.00000	98.64317	877.89691	98.64317
2800.00000	98.94436	875.76366	98.94436
2850.00000	99.23076	873.85058	99.23076
2900.00000	99.54902	871.09511	99.54902
2950.00000	99.84565	868.74615	99.84565
3000.00000	100.05869	866.51837	100.05869
3050.00000	100.30161	863.56382	100.30161
3100.00000	100.48937	860.44833	100.48937
3150.00000	100.49574	858.14736	100.49574
3200.00000	100.68433	855.29319	100.68433
3250.00000	100.92660	853.21547	100.92660
3300.00000	100.95092	850.96139	100.95092
3350.00000	101.19494	849.33037	101.19494
3400.00000	101.30034	847.35143	101.30034
3450.00000	101.41035	846.44325	101.41035
3500.00000	101.58020	845.83388	101.58020
3550.00000	102.24556	844.17428	102.24556
3600.00000	102.32573	841.18510	102.32573
3650.00000	102.65122	841.53694	102.65122
3700.00000	102.98116	840.76330	102.98116
3750.00000	103.63779	838.52170	103.63779
3800.00000	104.65362	836.98875	104.65362
3850.00000	105.38213	827.48803	105.38213
3900.00000	105.85683	819.25116	105.85683
3950.00000	105.13066	815.45671	105.13066
4000.00000	104.79469	816.40040	104.79469
4050.00000	105.18344	817.02398	105.18344
4100.00000	105.79606	816.77009	105.79606
4150.00000	107.34146	813.91584	107.34146
4200.00000	108.27085	809.54903	108.27085
4250.00000	108.38528	797.13861	108.38528
4300.00000	108.52285	794.17843	108.52285
4350.00000	108.97255	789.36585	108.97255
4400.00000	109.35465	783.12570	109.35465
4450.00000	109.47764	775.83995	109.47764
4500.00000	109.60330	769.53848	109.60330
4550.00000	109.52573	763.96529	109.52573
4600.00000	109.56569	758.32727	109.56569
4650.00000	109.57692	753.26097	109.57692
4700.00000	109.53477	748.23231	109.53477
4750.00000	109.50442	743.51291	109.50442
4800.00000	109.52376	739.07385	109.52376
4850.00000	109.54494	734.20042	109.54494
4900.00000	109.55705	728.71226	109.55705
4950.00000	109.53592	723.56664	109.53592
5000.00000	109.46759	717.97853	109.46759
5050.00000	109.34673	712.42547	109.34673
5100.00000	109.17191	706.92618	109.17191
5150.00000	108.93544	701.52263	108.93544
5200.00000	108.62997	696.00412	108.62997
5250.00000	108.10850	690.76227	108.10850
5300.00000	107.29595	688.97567	107.29595
5350.00000	107.62649	689.19493	107.62649
5400.00000	107.73726	683.19576	107.73726
5450.00000	107.45941	677.99131	107.45941
5500.00000	107.12971	673.33958	107.12971
5550.00000	106.79306	669.68193	106.79306
5600.00000	106.48087	665.77823	106.48087
5650.00000	106.10505	662.39928	106.10505
5700.00000	105.74547	659.02376	105.74547
5750.00000	105.42971	655.88625	105.42971
5800.00000	105.08165	653.14150	105.08165
5850.00000	104.71579	650.35547	104.71579
5900.00000	104.36661	647.67568	104.36661
5950.00000	104.06042	645.36231	104.06042
6000.00000	103.75036	643.17525	103.75036
6050.00000	103.46306	640.90295	103.46306
6100.00000	103.17202	638.63067	103.17202
6150.00000	102.84671	636.30833	102.84671
6200.00000	102.52251	634.53723	102.52251
6250.00000	102.24100	632.73905	102.24100
6300.00000	101.93366	630.99848	101.93366
6350.00000	101.63784	629.34111	101.63784
6400.00000	101.37896	628.05147	101.37896
6450.00000	101.10934	626.72829	101.10934
6500.00000	100.86136	625.71330	100.86136
6550.00000	100.64494	624.58024	100.64494
6600.00000	100.44593	623.47144	100.44593
6650.00000	100.19819	622.55529	100.19819
6700.00000	99.99559	622.07115	99.99559
6750.00000	99.84720	621.94723	99.84720
6800.00000	99.78680	621.76281	99.78680
6850.00000	99.79672	621.51593	99.79672
6900.00000	99.88286	620.78623	99.88286
6950.00000	100.01732	619.33344	100.01732
7000.00000	100.05566	617.28331	100.05566
7050.00000	100.08138	615.02144	100.08138
7100.00000	100.02434	612.68663	100.02434
7150.00000	99.87976	610.32871	99.87976
7200.00000	99.68878	608.40093	99.68878
7250.00000	99.45278	607.07751	99.45278
7300.00000	99.21660	606.14615	99.21660
7350.00000	99.02731	605.55869	99.02731
7400.00000	98.84985	605.59994	98.84985
7450.00000	98.78916	606.03156	98.78916
7500.00000	98.80306	606.26224	98.80306
7550.00000	98.88662	606.51646	98.88662
7600.00000	99.05471	606.55604	99.05471
7650.00000	99.25668	606.25399	99.25668
7700.00000	99.44111	605.55170	99.44111
7750.00000	99.70993	604.71422	99.70993
7800.00000	99.96923	603.40481	99.96923
7850.00000	100.22273	601.89648	100.22273
7900.00000	100.45152	599.96221	100.45152
7950.00000	100.64953	597.98511	100.64953
8000.00000	100.86666	596.10800	100.86666
8050.00000	101.04105	593.92563	101.04105
8100.00000	101.24439	591.84503	101.24439
8150.00000	101.44729	589.71862	101.44729
8200.00000	101.63388	587.33618	101.63388
8250.00000	101.82943	585.02507	101.82943
8300.00000	101.98987	582.37417	101.98987
8350.00000	102.15330	579.70960	102.15330
8400.00000	102.33540	577.34893	102.33540
8450.00000	102.50797	574.60051	102.50797
8500.00000	102.66185	571.85983	102.66185
8550.00000	102.83081	569.01156	102.83081
8600.00000	103.00525	566.40221	103.00525
8650.00000	103.16682	563.48435	103.16682
8700.00000	103.32984	560.12399	103.32984
8750.00000	103.43026	556.82798	103.43026
8800.00000	103.55753	553.65815	103.55753
8850.00000	103.70655	550.30399	103.70655
8900.00000	103.79525	546.67758	103.79525
8950.00000	103.89061	543.03872	103.89061
9000.00000	103.88698	539.10098	103.88698
9050.00000	103.89561	535.63070	103.89561
9100.00000	103.91580	532.21897	103.91580
9150.00000	103.94676	528.22642	103.94676
9200.00000	103.85459	524.21225	103.85459
9250.00000	103.74176	520.65154	103.74176
9300.00000	103.67803	516.91861	103.67803
9350.00000	103.55585	513.11684	103.55585
9400.00000	103.41826	509.36845	103.41826
9450.00000	103.26879	505.79867	103.26879
9500.00000	103.08580	502.18445	103.08580
9550.00000	102.87243	499.07848	102.87243
9600.00000	102.70957	496.12851	102.70957
9650.00000	102.55717	493.17079	102.55717
9700.00000	102.32293	490.19160	102.32293
9750.00000	102.13390	487.55029	102.13390
9800.00000	101.86999	485.19208	101.86999
9850.00000	101.64808	483.11205	101.64808
9900.00000	101.50481	481.57139	101.50481
9950.00000	101.36803	479.70747	101.36803
10000.00000	101.24755	478.07251	101.24755
10050.00000	101.13378	476.35214	101.13378
10100.00000	101.07844	474.52092	101.07844
10150.00000	100.94714	472.30611	100.94714
10200.00000	100.80404	470.41713	100.80404
10250.00000	100.66965	468.88375	100.66965
10300.00000	100.56217	467.44339	100.56217
10350.00000	100.50141	465.79384	100.50141
10400.00000	100.38259	463.94118	100.38259
10450.00000	100.34175	462.27468	100.34175
10500.00000	100.33481	460.30708	100.33481
10550.00000	100.31270	458.53097	100.31270
10600.00000	100.39625	456.15941	100.39625
10650.00000	100.39978	454.04509	100.39978
10700.00000	100.43050	451.58519	100.43050
10750.00000	100.46233	449.40516	100.46233
10800.00000	100.56038	446.63903	100.56038
10850.00000	100.64042	443.98308	100.64042
10900.00000	100.70455	441.28042	100.70455
10950.00000	100.74108	438.52446	100.74108
11000.00000	100.86492	435.63953	100.86492
11050.00000	100.83000	432.37050	100.83000
11100.00000	100.87244	429.39400	100.87244
11150.00000	100.89858	426.13113	100.89858
11200.00000	100.89438	422.85575	100.89438
11250.00000	100.80835	419.14232	100.80835
11300.00000	100.69307	415.50519	100.69307
11350.00000	100.58057	411.72930	100.58057
11400.00000	100.39343	407.68136	100.39343
11450.00000	100.22544	403.76877	100.22544
11500.00000	100.02130	399.85868	100.02130
11550.00000	99.77691	395.90954	99.77691
11600.00000	99.50046	392.11414	99.50046
11650.00000	99.20322	388.46891	99.20322
11700.00000	98.96105	384.92714	98.96105
11750.00000	98.65103	381.68775	98.65103
11800.00000	98.37173	378.90508	98.37173
11850.00000	98.12964	376.00104	98.12964
11900.00000	97.80239	373.69673	97.80239
11950.00000	97.52725	371.33293	97.52725
12000.00000	97.31364	369.47327	97.31364
12050.00000	96.94893	367.56656	96.94893
12100.00000	96.58147	365.52729	96.58147
12150.00000	96.16631	363.46548	96.16631
12200.00000	95.79571	361.66626	95.79571
12250.00000	95.44500	360.13936	95.44500
12300.00000	94.89981	358.28810	94.89981
12350.00000	94.53527	356.75144	94.53527
12400.00000	94.07402	354.61853	94.07402
12450.00000	93.80949	353.06337	93.80949
12500.00000	93.51339	351.75353	93.51339
12550.00000	93.22169	350.41666	93.22169
12600.00000	92.91325	347.87818	92.91325
12650.00000	92.62835	347.07962	92.62835
12700.00000	92.20777	345.49250	92.20777
12750.00000	91.95997	345.00878	91.95997
12800.00000	91.75488	343.88011	91.75488
12850.00000	91.37197	343.73999	91.37197
12900.00000	90.94604	341.49623	90.94604
12950.00000	90.65491	339.20416	90.65491
13000.00000	90.28515	337.55608	90.28515
13050.00000	89.98907	335.63549	89.98907
13100.00000	89.76926	332.88599	89.76926
13150.00000	89.66588	331.29399	89.66588
13200.00000	89.62517	327.01982	89.62517
13250.00000	89.84704	322.57178	89.84704
13300.00000	90.35727	323.01126	90.35727
13350.00000	91.17732	321.69675	91.17732
13400.00000	92.07084	326.22483	92.07084
13450.00000	92.34957	335.98450	92.34957
13500.00000	91.66634	350.85719	91.66634
13550.00000	90.20968	359.18561	90.20968
13600.00000	88.24753	362.53585	88.24753
13650.00000	86.37751	361.36910	86.37751
13700.00000	85.00518	357.71975	85.00518
13750.00000	83.86351	350.32949	83.86351
13800.00000	83.47606	344.04501	83.47606
13850.00000	83.27204	336.98681	83.27204
13900.00000	83.33222	329.78963	83.33222
13950.00000	83.93314	324.63004	83.93314
14000.00000	85.27177	321.51996	85.27177
14050.00000	86.96100	322.64958	86.96100
14100.00000	88.81074	328.31787	88.81074
14150.00000	90.37692	343.91765	90.37692
14200.00000	90.17226	358.96669	90.17226
14250.00000	88.77984	373.36220	88.77984
14300.00000	87.18041	378.71579	87.18041
14350.00000	85.80855	380.04675	85.80855
14400.00000	84.92121	377.94414	84.92121
14450.00000	84.20499	374.58361	84.20499
14500.00000	84.27292	370.43561	84.27292
14550.00000	83.88876	365.95287	83.88876
14600.00000	84.32997	363.89807	84.32997
14650.00000	84.66862	360.40988	84.66862
14700.00000	85.60428	356.48127	85.60428
14750.00000	86.67641	352.97617	86.67641
14800.00000	87.49167	353.65636	87.49167
14850.00000	88.58866	355.55737	88.58866
14900.00000	89.94677	358.91537	89.94677
14950.00000	90.56205	363.79209	90.56205
15000.00000	90.97464	369.34268	90.97464
15050.00000	90.97271	373.22328	90.97271
15100.00000	90.95043	376.14873	90.95043
15150.00000	90.74883	375.38123	90.74883
15200.00000	90.74259	372.92419	90.74259
15250.00000	90.63081	370.68257	90.63081
15300.00000	90.76420	367.12528	90.76420
15350.00000	91.15035	362.59170	91.15035
15400.00000	91.56806	358.63748	91.56806
15450.00000	92.08611	354.18178	92.08611
15500.00000	92.91613	350.76467	92.91613
15550.00000	93.59544	348.41547	93.59544
15600.00000	94.38147	345.67190	94.38147
15650.00000	94.97042	344.06958	94.97042
15700.00000	95.31587	343.68450	95.31587
15750.00000	95.63511	343.31433	95.63511
15800.00000	95.66951	342.29475	95.66951
15850.00000	95.83677	341.70181	95.83677
15900.00000	95.74040	338.25627	95.74040
15950.00000	95.66073	335.12648	95.66073
16000.00000	95.60362	332.30148	95.60362
16050.00000	95.72523	328.39383	95.72523
16100.00000	95.82729	325.21146	95.82729
16150.00000	95.97551	321.29724	95.97551
16200.00000	96.25086	318.72464	96.25086
16250.00000	96.47228	315.74676	96.47228
16300.00000	96.75921	313.37570	96.75921
16350.00000	97.06347	311.79832	97.06347
16400.00000	97.26503	310.47114	97.26503
16450.00000	97.41844	309.68963	97.41844
16500.00000	97.55261	308.63633	97.55261
16550.00000	97.67065	306.47950	97.67065
16600.00000	97.70454	304.89822	97.70454
16650.00000	97.77198	302.85998	97.77198
16700.00000	97.87096	300.72892	97.87096
16750.00000	97.97007	297.99313	97.97007
16800.00000	98.10922	295.50626	98.10922
16850.00000	98.36183	293.12483	98.36183
16900.00000	98.59082	290.81029	98.59082
16950.00000	98.84367	288.72246	98.84367
17000.00000	99.04445	286.61507	99.04445
17050.00000	99.26316	285.10840	99.26316
17100.00000	99.47266	283.45818	99.47266
17150.00000	99.68105	281.55866	99.68105
17200.00000	99.79456	279.62062	99.79456
17250.00000	99.93485	277.20654	99.93485
17300.00000	100.13439	274.59436	100.13439
17350.00000	100.27047	271.64845	100.27047
17400.00000	100.50132	268.71822	100.50132
17450.00000	100.71188	265.63751	100.71188
17500.00000	100.86942	262.90115	100.86942
17550.00000	101.11023	259.71374	101.11023
17600.00000	101.27213	256.85334	101.27213
17650.00000	101.48417	254.33025	101.48417
17700.00000	101.68530	251.63856	101.68530
17750.00000	101.78937	248.86898	101.78937
17800.00000	101.87414	245.74614	101.87414
17850.00000	101.99924	243.13296	101.99924
17900.00000	102.11892	240.22326	102.11892
17950.00000	102.16262	237.28450	102.16262
18000.00000	102.24188	234.36657	102.24188
18050.00000	102.28903	231.34976	102.28903
18100.00000	102.34141	228.41736	102.34141
18150.00000	102.41726	225.36172	102.41726
18200.00000	102.45238	222.62361	102.45238
18250.00000	102.53434	219.98629	102.53434
18300.00000	102.54552	217.33021	102.54552
18350.00000	102.58029	214.58053	102.58029
18400.00000	102.63648	211.89189	102.63648
18450.00000	102.70766	209.54913	102.70766
18500.00000	102.74547	207.13964	102.74547
18550.00000	102.81098	204.27023	102.81098
18600.00000	102.86438	201.96118	102.86438
18650.00000	102.96523	199.31671	102.96523
18700.00000	103.02373	197.03033	103.02373
18750.00000	103.08782	194.37768	103.08782
18800.00000	103.12893	191.74122	103.12893
18850.00000	103.21327	189.30060	103.21327
18900.00000	103.22810	186.74643	103.22810
18950.00000	103.29996	184.05391	103.29996
19000.00000	103.30853	181.41162	103.30853
19050.00000	103.35811	178.62521	103.35811
19100.00000	103.39791	175.81125	103.39791
19150.00000	103.44706	173.50379	103.44706
19200.00000	103.49017	170.86407	103.49017
19250.00000	103.49425	168.46035	103.49425
19300.00000	103.56416	166.16708	103.56416
19350.00000	103.58925	163.41878	103.58925
19400.00000	103.60166	161.21351	103.60166
19450.00000	103.62469	158.72555	103.62469
19500.00000	103.69106	156.55765	103.69106
19550.00000	103.72573	154.01051	103.72573
19600.00000	103.77665	151.78617	103.77665
19650.00000	103.84055	149.43581	103.84055
19700.00000	103.89899	146.87014	103.89899
19750.00000	103.97578	144.60536	103.97578
19800.00000	104.05442	142.48168	104.05442
19850.00000	104.09428	139.82192	104.09428
19900.00000	104.20145	137.37147	104.20145
19950.00000	104.27593	135.09330	104.27593
20000.00000	104.33712	132.04999	104.33712
20050.00000	104.40399	129.61983	104.40399
20100.00000	104.52318	127.05947	104.52318
20150.00000	104.58168	124.05597	104.58168
20200.00000	104.65832	121.39809	104.65832
20250.00000	104.74244	118.87177	104.74244
20300.00000	104.82386	116.19724	104.82386
20350.00000	104.89084	113.49328	104.89084
20400.00000	104.92891	110.68064	104.92891
20450.00000	105.01082	107.65728	105.01082
20500.00000	105.07042	104.78002	105.07042
20550.00000	105.09699	101.63356	105.09699
20600.00000	105.13279	98.72788	105.13279
20650.00000	105.18925	95.68922	105.18925
20700.00000	105.21979	93.00844	105.21979
20750.00000	105.22674	90.09127	105.22674
20800.00000	105.24559	87.05904	105.24559
20850.00000	105.25201	83.88597	105.25201
20900.00000	105.22620	81.06637	105.22620
20950.00000	105.22851	77.97248	105.22851
21000.00000	105.23790	74.91175	105.23790
21050.00000	105.23376	72.00139	105.23376
21100.00000	105.20449	69.09550	105.20449
21150.00000	105.15977	66.44420	105.15977
21200.00000	105.12877	63.64990	105.12877
21250.00000	105.07447	60.95403	105.07447
21300.00000	105.03128	57.92885	105.03128
21350.00000	104.99953	55.19317	104.99953
21400.00000	104.96014	52.20432	104.96014
21450.00000	104.93817	49.55467	104.93817
21500.00000	104.93480	47.07235	104.93480
21550.00000	104.90701	44.47653	104.90701
21600.00000	104.85228	41.66620	104.85228
21650.00000	104.80948	39.22394	104.80948
21700.00000	104.71885	36.22873	104.71885
21750.00000	104.68514	33.61183	104.68514
21800.00000	104.64203	30.91322	104.64203
21850.00000	104.59837	28.44926	104.59837
21900.00000	104.54408	25.91202	104.54408
21950.00000	104.51627	23.36384	104.51627
22000.00000	104.41166	21.08036	104.41166
22050.00000	104.36443	18.85875	104.36443
22100.00000	104.32982	16.63223	104.32982
22150.00000	104.31754	14.43936	104.31754
22200.00000	104.30231	12.04035	104.30231
22250.00000	104.33388	 9.72023	104.33388
22300.00000	104.36726	 7.09731	104.36726
22350.00000	104.34769	 4.47972	104.34769
22400.00000	104.36729	 1.83930	104.36729
22450.00000	104.39715	-0.47962	104.39715
22500.00000	104.37997	-3.28465	104.37997
22550.00000	104.38696	-6.04025	104.38696
22600.00000	104.37788	-8.43515	104.37788
22650.00000	104.37911	-11.15036	104.37911
22700.00000	104.35390	-13.80332	104.35390
22750.00000	104.38219	-16.70779	104.38219
22800.00000	104.38359	-19.66377	104.38359
22850.00000	104.35565	-22.34985	104.35565
22900.00000	104.39654	-24.95011	104.39654
22950.00000	104.41328	-27.87216	104.41328
23000.00000	104.37325	-30.92854	104.37325
23050.00000	104.33433	-33.88295	104.33433
23100.00000	104.29130	-37.09418	104.29130
23150.00000	104.20946	-40.14130	104.20946
23200.00000	104.14408	-43.64783	104.14408
23250.00000	104.17018	-46.80689	104.17018
23300.00000	104.15161	-50.55677	104.15161
