---ACOUSTIC CALIBRATION---
Filename: C:\Data\CL0809 DATA\CL0809100\RightPrimary.calib
Date: 8/9/2019 9:01:48 AM
Format: 4
Probe Tube Correction File: C:\Data\Probe Tube Calibrations\74_ProbeTube.calib
Experiment VIs: 2128
EPL_CFTS.exe V15.0.1f5 (2015)
DAQmx V15.1

Attenuation (dB): 40.000000
Min Freq (Hz): 50.000000
Max Freq (Hz): 99950.000000
Freq Step (Hz): 50.000000
Sample Rate (Hz): 200000.000000
[Smoothing]
Method=None
MA.Iterations=0
MA.Length=0
Loess.Length=0
Loess.Type=Linear
Loess.Robust=FALSE


Freq(Hz)	Mag(dB)	Phase(deg)	Unsmoothed(dB)

50.00000	95.92089	190.57083	95.92089
100.00000	69.98543	290.59010	69.98543
150.00000	64.95824	415.62237	64.95824
200.00000	55.17087	479.24203	55.17087
250.00000	52.48523	757.76458	52.48523
300.00000	65.02488	848.49193	65.02488
350.00000	59.52582	1012.94984	59.52582
400.00000	57.00916	1076.48327	57.00916
450.00000	60.15365	1104.04536	60.15365
500.00000	61.99226	1206.82500	61.99226
550.00000	66.43741	1161.09762	66.43741
600.00000	67.11678	1120.93430	67.11678
650.00000	73.47463	1124.07888	73.47463
700.00000	74.33166	1125.41016	74.33166
750.00000	77.30355	1094.39863	77.30355
800.00000	78.41538	1084.74850	78.41538
850.00000	77.72126	1079.58316	77.72126
900.00000	78.15133	1086.32009	78.15133
950.00000	80.90667	1086.37562	80.90667
1000.00000	82.95761	1090.57084	82.95761
1050.00000	86.17227	1085.28115	86.17227
1100.00000	89.05222	1073.43834	89.05222
1150.00000	91.06404	1059.76471	91.06404
1200.00000	92.45967	1045.01572	92.45967
1250.00000	93.11872	1030.81730	93.11872
1300.00000	93.38665	1023.26927	93.38665
1350.00000	94.37940	1016.47183	94.37940
1400.00000	95.46208	1007.59800	95.46208
1450.00000	96.16169	996.02250	96.16169
1500.00000	96.53845	985.30781	96.53845
1550.00000	96.68326	976.08416	96.68326
1600.00000	97.04309	971.16099	97.04309
1650.00000	97.57481	968.27556	97.57481
1700.00000	101.47552	953.11527	101.47552
1750.00000	98.56090	933.01914	98.56090
1800.00000	98.33697	927.19315	98.33697
1850.00000	98.06345	919.02429	98.06345
1900.00000	97.86349	911.73365	97.86349
1950.00000	97.20177	906.10331	97.20177
2000.00000	96.67244	901.69762	96.67244
2050.00000	96.27696	901.75719	96.27696
2100.00000	97.05070	901.12087	97.05070
2150.00000	98.02446	892.93394	98.02446
2200.00000	97.97402	880.23427	97.97402
2250.00000	97.07313	872.26478	97.07313
2300.00000	96.46910	870.34954	96.46910
2350.00000	96.62282	865.74569	96.62282
2400.00000	96.65409	859.32217	96.65409
2450.00000	96.10564	850.98893	96.10564
2500.00000	95.20366	848.23083	95.20366
2550.00000	94.97812	845.16410	94.97812
2600.00000	94.65229	841.56205	94.65229
2650.00000	94.24347	838.43345	94.24347
2700.00000	93.85577	834.24363	93.85577
2750.00000	93.41519	831.01377	93.41519
2800.00000	92.93064	827.38889	92.93064
2850.00000	92.46029	825.22024	92.46029
2900.00000	92.00802	822.31702	92.00802
2950.00000	91.51926	821.01212	91.51926
3000.00000	91.02406	819.68137	91.02406
3050.00000	90.69929	818.91252	90.69929
3100.00000	90.38219	817.97017	90.38219
3150.00000	89.97517	817.55007	89.97517
3200.00000	89.80111	816.23835	89.80111
3250.00000	89.66248	814.40783	89.66248
3300.00000	89.29615	812.56453	89.29615
3350.00000	89.05722	811.14859	89.05722
3400.00000	88.73920	809.43687	88.73920
3450.00000	88.23885	809.41085	88.23885
3500.00000	87.81078	809.16068	87.81078
3550.00000	87.92062	807.82928	87.92062
3600.00000	87.34638	804.04348	87.34638
3650.00000	86.65812	802.93763	86.65812
3700.00000	85.77106	800.92910	85.77106
3750.00000	84.79373	799.25019	84.79373
3800.00000	83.81317	800.30998	83.81317
3850.00000	82.04423	796.96118	82.04423
3900.00000	80.03223	804.30108	80.03223
3950.00000	77.70948	821.39413	77.70948
4000.00000	77.21247	844.18094	77.21247
4050.00000	77.68718	873.11266	77.68718
4100.00000	80.70340	890.88973	80.70340
4150.00000	84.31885	897.61502	84.31885
4200.00000	86.85165	898.21316	86.85165
4250.00000	88.28040	890.33631	88.28040
4300.00000	89.49568	891.78731	89.49568
4350.00000	91.03668	890.95171	91.03668
4400.00000	92.49347	887.98146	92.49347
4450.00000	93.59017	883.54265	93.59017
4500.00000	94.64273	879.62627	94.64273
4550.00000	95.47409	876.46770	95.47409
4600.00000	96.41103	872.92135	96.41103
4650.00000	97.27356	869.40726	97.27356
4700.00000	97.99817	866.03911	97.99817
4750.00000	98.73061	863.58322	98.73061
4800.00000	99.63220	861.44574	99.63220
4850.00000	100.60627	858.67307	100.60627
4900.00000	101.65000	854.75218	101.65000
4950.00000	102.69944	850.83231	102.69944
5000.00000	103.80512	846.03692	103.80512
5050.00000	104.96319	840.75548	104.96319
5100.00000	106.24432	835.01886	106.24432
5150.00000	107.76514	828.09844	107.76514
5200.00000	109.69545	818.45538	109.69545
5250.00000	112.24090	801.99515	112.24090
5300.00000	114.57330	765.43054	114.57330
5350.00000	111.32034	716.53104	111.32034
5400.00000	104.66698	699.15497	104.66698
5450.00000	98.69883	710.42546	98.69883
5500.00000	96.91296	738.89561	96.91296
5550.00000	97.97797	747.67496	97.97797
5600.00000	96.74801	747.35898	96.74801
5650.00000	95.61843	765.60165	95.61843
5700.00000	97.15727	779.89744	97.15727
5750.00000	98.98906	784.30663	98.98906
5800.00000	100.45900	784.52706	100.45900
5850.00000	101.66197	782.55727	101.66197
5900.00000	102.66611	779.40392	102.66611
5950.00000	103.54081	775.74513	103.54081
6000.00000	104.27127	771.37133	104.27127
6050.00000	104.81050	766.38494	104.81050
6100.00000	105.14597	761.68555	105.14597
6150.00000	105.28969	757.92487	105.28969
6200.00000	105.42867	755.79026	105.42867
6250.00000	105.67043	754.66909	105.67043
6300.00000	106.09453	754.14316	106.09453
6350.00000	106.73048	753.53646	106.73048
6400.00000	107.50744	752.25891	107.50744
6450.00000	108.39511	750.14082	108.39511
6500.00000	109.33775	747.05964	109.33775
6550.00000	110.33334	743.00454	110.33334
6600.00000	111.30034	738.00808	111.30034
6650.00000	112.26071	732.16759	112.26071
6700.00000	113.21202	725.30694	113.21202
6750.00000	114.09552	717.25713	114.09552
6800.00000	114.86110	708.20543	114.86110
6850.00000	115.47760	698.14551	115.47760
6900.00000	115.88022	687.43175	115.88022
6950.00000	116.04430	676.46892	116.04430
7000.00000	115.96872	665.79143	115.96872
7050.00000	115.71454	656.02767	115.71454
7100.00000	115.34053	647.13148	115.34053
7150.00000	114.91035	639.12036	114.91035
7200.00000	114.42668	631.88640	114.42668
7250.00000	113.92896	625.48493	113.92896
7300.00000	113.44794	619.70239	113.44794
7350.00000	112.99445	614.48593	112.99445
7400.00000	112.60883	609.69016	112.60883
7450.00000	112.26181	604.76542	112.26181
7500.00000	111.89739	599.71242	111.89739
7550.00000	111.49247	594.73272	111.49247
7600.00000	111.06139	590.14674	111.06139
7650.00000	110.61917	585.83420	110.61917
7700.00000	110.17513	581.92496	110.17513
7750.00000	109.74606	578.21040	109.74606
7800.00000	109.31415	574.86529	109.31415
7850.00000	108.90797	571.75236	108.90797
7900.00000	108.52725	568.84161	108.52725
7950.00000	108.19383	566.25478	108.19383
8000.00000	107.86446	563.71012	107.86446
8050.00000	107.57121	561.38847	107.57121
8100.00000	107.30540	559.07478	107.30540
8150.00000	107.09014	556.87762	107.09014
8200.00000	106.89699	554.43021	106.89699
8250.00000	106.72611	551.98974	106.72611
8300.00000	106.54740	549.61948	106.54740
8350.00000	106.37530	547.23036	106.37530
8400.00000	106.26301	544.92027	106.26301
8450.00000	106.14110	542.35815	106.14110
8500.00000	106.05655	539.84692	106.05655
8550.00000	105.96164	537.13776	105.96164
8600.00000	105.90234	534.48540	105.90234
8650.00000	105.84784	531.66423	105.84784
8700.00000	105.73350	528.59643	105.73350
8750.00000	105.66256	525.59026	105.66256
8800.00000	105.59427	522.44376	105.59427
8850.00000	105.54574	519.07660	105.54574
8900.00000	105.43323	515.66575	105.43323
8950.00000	105.31019	512.21926	105.31019
9000.00000	105.16233	509.08468	105.16233
9050.00000	105.07429	505.69862	105.07429
9100.00000	104.97047	502.04277	104.97047
9150.00000	104.76873	498.33240	104.76873
9200.00000	104.58308	495.14782	104.58308
9250.00000	104.38892	491.54100	104.38892
9300.00000	104.19815	488.05056	104.19815
9350.00000	103.95018	484.41208	103.95018
9400.00000	103.66837	481.02028	103.66837
9450.00000	103.38045	477.91071	103.38045
9500.00000	103.11560	474.90444	103.11560
9550.00000	102.84243	472.21378	102.84243
9600.00000	102.59953	469.51007	102.59953
9650.00000	102.34462	466.85963	102.34462
9700.00000	102.05011	463.89055	102.05011
9750.00000	101.75539	461.49887	101.75539
9800.00000	101.42495	459.15531	101.42495
9850.00000	101.14495	456.76128	101.14495
9900.00000	100.80213	454.85476	100.80213
9950.00000	100.33751	453.35117	100.33751
10000.00000	99.92181	453.58407	99.92181
10050.00000	99.76177	456.35002	99.76177
10100.00000	100.45817	457.18863	100.45817
10150.00000	100.90941	452.57642	100.90941
10200.00000	100.90446	447.71058	100.90446
10250.00000	100.74853	444.16420	100.74853
10300.00000	100.63897	441.11490	100.63897
10350.00000	100.48137	438.35130	100.48137
10400.00000	100.29569	435.75595	100.29569
10450.00000	100.20175	433.36593	100.20175
10500.00000	100.13962	430.74732	100.13962
10550.00000	100.10293	428.34863	100.10293
10600.00000	100.09050	425.24685	100.09050
10650.00000	100.05529	422.58313	100.05529
10700.00000	100.05404	419.48468	100.05404
10750.00000	100.05864	416.50884	100.05864
10800.00000	100.07697	412.76464	100.07697
10850.00000	100.09765	409.11774	100.09765
10900.00000	100.08970	405.59693	100.08970
10950.00000	100.05480	401.51128	100.05480
11000.00000	100.03491	397.44989	100.03491
11050.00000	99.92397	393.29719	99.92397
11100.00000	99.88123	388.93636	99.88123
11150.00000	99.76343	384.23190	99.76343
11200.00000	99.61719	379.60787	99.61719
11250.00000	99.37382	374.78538	99.37382
11300.00000	99.14082	370.05522	99.14082
11350.00000	98.87746	365.08969	98.87746
11400.00000	98.53369	360.01250	98.53369
11450.00000	98.17040	355.03038	98.17040
11500.00000	97.77593	350.12219	97.77593
11550.00000	97.31056	345.04257	97.31056
11600.00000	96.80856	340.48822	96.80856
11650.00000	96.35563	335.96395	96.35563
11700.00000	95.83262	331.35202	95.83262
11750.00000	95.25999	327.25110	95.25999
11800.00000	94.72321	323.51831	94.72321
11850.00000	94.21817	319.37060	94.21817
11900.00000	93.61017	316.14792	93.61017
11950.00000	93.11329	312.79271	93.11329
12000.00000	92.58927	309.60409	92.58927
12050.00000	92.00232	306.91132	92.00232
12100.00000	91.28080	304.15153	91.28080
12150.00000	90.69260	301.08323	90.69260
12200.00000	90.06079	298.13866	90.06079
12250.00000	89.40676	296.33947	89.40676
12300.00000	88.66034	294.00770	88.66034
12350.00000	87.99470	292.20845	87.99470
12400.00000	87.36991	289.55035	87.36991
12450.00000	86.77839	287.29374	86.77839
12500.00000	86.11293	285.83813	86.11293
12550.00000	85.30327	283.61424	85.30327
12600.00000	84.74610	280.39941	84.74610
12650.00000	84.14903	279.64220	84.14903
12700.00000	83.53809	277.49551	83.53809
12750.00000	82.99035	274.50647	82.99035
12800.00000	82.38385	272.35316	82.38385
12850.00000	81.66714	270.37301	81.66714
12900.00000	81.06030	267.04162	81.06030
12950.00000	80.68221	264.01986	80.68221
13000.00000	80.06201	259.86976	80.06201
13050.00000	79.83651	256.77891	79.83651
13100.00000	79.28462	253.31840	79.28462
13150.00000	79.12199	246.53547	79.12199
13200.00000	78.78471	241.50213	78.78471
13250.00000	79.23383	234.33074	79.23383
13300.00000	79.91628	229.92787	79.91628
13350.00000	80.33508	224.41263	80.33508
13400.00000	81.56782	224.41416	81.56782
13450.00000	82.03141	228.49585	82.03141
13500.00000	81.54446	237.40258	81.54446
13550.00000	80.76859	239.16520	80.76859
13600.00000	79.50316	237.68559	79.50316
13650.00000	78.15291	230.73427	78.15291
13700.00000	77.33526	223.76262	77.33526
13750.00000	76.76271	209.95678	76.76271
13800.00000	76.76704	199.45090	76.76704
13850.00000	77.41758	187.07086	77.41758
13900.00000	78.08206	173.65590	78.08206
13950.00000	79.04956	163.96848	79.04956
14000.00000	81.10684	153.42047	81.10684
14050.00000	83.55173	150.05904	83.55173
14100.00000	86.20616	146.50784	86.20616
14150.00000	88.07498	154.35039	88.07498
14200.00000	88.60240	164.63833	88.60240
14250.00000	87.89501	171.38873	87.89501
14300.00000	86.96903	172.68248	86.96903
14350.00000	86.21666	169.30759	86.21666
14400.00000	85.91214	163.66660	85.91214
14450.00000	85.71255	156.56606	85.71255
14500.00000	85.84948	148.83705	85.84948
14550.00000	86.21311	141.35202	86.21311
14600.00000	86.81960	134.51679	86.81960
14650.00000	87.58998	127.95406	87.58998
14700.00000	88.52630	120.54310	88.52630
14750.00000	89.57124	115.26501	89.57124
14800.00000	90.84780	111.17946	90.84780
14850.00000	92.20786	108.76046	92.20786
14900.00000	93.55612	106.76026	93.55612
14950.00000	94.45080	108.92301	94.45080
15000.00000	95.05106	110.34404	95.05106
15050.00000	95.36366	112.36443	95.36366
15100.00000	95.40540	110.75843	95.40540
15150.00000	95.30759	107.73374	95.30759
15200.00000	95.39249	104.23890	95.39249
15250.00000	95.40427	99.44721	95.40427
15300.00000	95.65107	93.95229	95.65107
15350.00000	96.09619	88.74141	96.09619
15400.00000	96.58134	82.81964	96.58134
15450.00000	97.15854	76.32204	97.15854
15500.00000	97.88003	71.05312	97.88003
15550.00000	98.59531	66.85815	98.59531
15600.00000	99.44675	63.06258	99.44675
15650.00000	100.15903	60.15850	100.15903
15700.00000	100.59164	58.54177	100.59164
15750.00000	101.15451	57.02491	101.15451
15800.00000	101.47364	54.94277	101.47364
15850.00000	101.78472	52.64533	101.78472
15900.00000	101.90840	48.87562	101.90840
15950.00000	102.05686	44.58146	102.05686
16000.00000	102.24121	39.91711	102.24121
16050.00000	102.52019	34.79515	102.52019
16100.00000	102.79617	29.55800	102.79617
16150.00000	103.21812	23.86184	103.21812
16200.00000	103.65194	19.01890	103.65194
16250.00000	104.06195	13.49200	104.06195
16300.00000	104.51044	 8.84561	104.51044
16350.00000	104.88469	 4.87671	104.88469
16400.00000	105.18640	 0.71652	105.18640
16450.00000	105.49670	-2.79892	105.49670
16500.00000	105.66360	-6.77466	105.66360
16550.00000	105.79085	-10.65895	105.79085
16600.00000	105.85506	-15.01050	105.85506
16650.00000	105.87467	-19.52934	105.87467
16700.00000	105.93083	-24.19684	105.93083
16750.00000	105.96779	-28.97957	105.96779
16800.00000	106.02612	-33.50910	106.02612
16850.00000	106.15628	-38.41093	106.15628
16900.00000	106.27560	-42.30147	106.27560
16950.00000	106.35115	-46.69010	106.35115
17000.00000	106.45909	-50.59839	106.45909
17050.00000	106.56791	-53.97926	106.56791
17100.00000	106.62783	-57.28555	106.62783
17150.00000	106.65758	-60.48985	106.65758
17200.00000	106.65655	-63.97296	106.65655
17250.00000	106.64488	-67.50947	106.64488
17300.00000	106.66058	-71.24288	106.66058
17350.00000	106.65129	-75.04124	106.65129
17400.00000	106.68411	-78.95958	106.68411
17450.00000	106.70301	-82.72487	106.70301
17500.00000	106.72630	-86.27754	106.72630
17550.00000	106.79631	-90.00141	106.79631
17600.00000	106.85494	-93.32115	106.85494
17650.00000	106.92044	-96.54473	106.92044
17700.00000	106.98075	-99.70092	106.98075
17750.00000	107.02207	-102.89253	107.02207
17800.00000	107.02481	-106.11629	107.02481
17850.00000	107.07337	-109.32691	107.07337
17900.00000	107.08720	-112.49300	107.08720
17950.00000	107.08536	-115.81154	107.08536
18000.00000	107.12089	-119.22722	107.12089
18050.00000	107.12496	-122.61543	107.12496
18100.00000	107.15471	-126.01484	107.15471
18150.00000	107.16318	-129.48871	107.16318
18200.00000	107.17172	-132.94146	107.17172
18250.00000	107.18672	-136.33132	107.18672
18300.00000	107.18406	-139.68288	107.18406
18350.00000	107.18932	-143.17843	107.18932
18400.00000	107.16551	-146.41985	107.16551
18450.00000	107.16534	-149.70002	107.16534
18500.00000	107.14770	-152.94038	107.14770
18550.00000	107.13783	-156.50381	107.13783
18600.00000	107.06375	-159.79697	107.06375
18650.00000	107.06184	-162.94451	107.06184
18700.00000	107.03213	-166.06029	107.03213
18750.00000	106.97645	-169.27105	106.97645
18800.00000	106.91184	-172.51055	106.91184
18850.00000	106.85248	-175.41666	106.85248
18900.00000	106.75797	-178.33174	106.75797
18950.00000	106.70830	-181.32636	106.70830
19000.00000	106.62425	-184.44798	106.62425
19050.00000	106.55513	-187.56223	106.55513
19100.00000	106.49671	-190.34773	106.49671
19150.00000	106.44675	-193.05081	106.44675
19200.00000	106.39158	-195.95326	106.39158
19250.00000	106.31893	-198.59283	106.31893
19300.00000	106.30851	-201.10485	106.30851
19350.00000	106.27541	-204.14160	106.27541
19400.00000	106.17955	-206.68270	106.17955
19450.00000	106.13763	-209.55505	106.13763
19500.00000	106.09652	-212.07904	106.09652
19550.00000	106.06628	-214.79915	106.06628
19600.00000	106.01319	-217.53309	106.01319
19650.00000	105.95418	-220.22069	105.95418
19700.00000	105.92835	-222.94590	105.92835
19750.00000	105.88905	-225.43261	105.88905
19800.00000	105.88097	-227.90993	105.88097
19850.00000	105.82869	-230.82459	105.82869
19900.00000	105.79935	-233.36804	105.79935
19950.00000	105.74788	-235.88729	105.74788
20000.00000	105.69435	-238.98131	105.69435
20050.00000	105.66281	-241.47015	105.66281
20100.00000	105.62551	-244.23181	105.62551
20150.00000	105.58851	-246.97804	105.58851
20200.00000	105.54135	-249.63231	105.54135
20250.00000	105.51568	-251.99917	105.51568
20300.00000	105.47987	-254.59781	105.47987
20350.00000	105.43842	-257.07083	105.43842
20400.00000	105.38918	-259.55657	105.38918
20450.00000	105.34875	-262.14384	105.34875
20500.00000	105.31696	-264.75296	105.31696
20550.00000	105.29086	-267.42389	105.29086
20600.00000	105.27593	-269.88496	105.27593
20650.00000	105.25943	-272.48777	105.25943
20700.00000	105.25259	-274.92070	105.25259
20750.00000	105.20301	-277.51019	105.20301
20800.00000	105.18835	-280.18700	105.18835
20850.00000	105.16570	-282.86078	105.16570
20900.00000	105.14651	-285.46258	105.14651
20950.00000	105.13626	-288.07205	105.13626
21000.00000	105.14485	-290.93799	105.14485
21050.00000	105.12189	-293.71026	105.12189
21100.00000	105.12267	-296.31452	105.12267
21150.00000	105.08529	-298.92087	105.08529
21200.00000	105.05896	-301.62086	105.05896
21250.00000	105.00608	-304.27078	105.00608
21300.00000	104.96559	-307.37146	104.96559
21350.00000	104.92938	-310.19371	104.92938
21400.00000	104.86141	-313.19668	104.86141
21450.00000	104.88219	-315.89371	104.88219
21500.00000	104.87506	-318.55705	104.87506
21550.00000	104.82142	-321.30815	104.82142
21600.00000	104.78128	-324.35581	104.78128
21650.00000	104.75158	-327.00925	104.75158
21700.00000	104.65499	-330.25478	104.65499
21750.00000	104.62092	-333.21022	104.62092
21800.00000	104.54405	-336.43313	104.54405
21850.00000	104.50196	-339.29259	104.50196
21900.00000	104.41050	-342.14211	104.41050
21950.00000	104.35375	-345.02522	104.35375
22000.00000	104.18500	-347.71862	104.18500
22050.00000	104.08983	-350.27888	104.08983
22100.00000	104.01132	-353.08588	104.01132
22150.00000	103.92614	-355.94893	103.92614
22200.00000	103.82866	-358.62700	103.82866
22250.00000	103.78666	-361.62524	103.78666
22300.00000	103.70826	-364.45765	103.70826
22350.00000	103.58416	-367.56797	103.58416
22400.00000	103.47505	-370.83093	103.47505
22450.00000	103.33953	-373.63310	103.33953
22500.00000	103.17041	-376.60051	103.17041
22550.00000	103.05057	-379.34805	103.05057
22600.00000	102.85773	-382.06054	102.85773
22650.00000	102.71557	-384.63816	102.71557
22700.00000	102.55066	-387.23046	102.55066
22750.00000	102.39217	-390.01575	102.39217
22800.00000	102.23518	-392.50670	102.23518
22850.00000	102.05206	-395.08932	102.05206
22900.00000	101.90483	-397.16433	101.90483
22950.00000	101.73243	-399.39547	101.73243
23000.00000	101.56444	-401.52911	101.56444
23050.00000	101.35261	-403.93334	101.35261
23100.00000	101.21324	-406.46570	101.21324
23150.00000	100.99298	-408.47040	100.99298
