---ACOUSTIC CALIBRATION---
Filename: C:\Data\CL0809 DATA\CL0809100\RightPrimary.calib
Date: 8/9/2019 9:01:54 AM
Format: 4
Probe Tube Correction File: C:\Data\Probe Tube Calibrations\74_ProbeTube.calib
Experiment VIs: 2128
EPL_CFTS.exe V15.0.1f5 (2015)
DAQmx V15.1

Attenuation (dB): 40.000000
Min Freq (Hz): 50.000000
Max Freq (Hz): 99950.000000
Freq Step (Hz): 50.000000
Sample Rate (Hz): 200000.000000
[Smoothing]
Method=None
MA.Iterations=0
MA.Length=0
Loess.Length=0
Loess.Type=Linear
Loess.Robust=FALSE


Freq(Hz)	Mag(dB)	Phase(deg)	Unsmoothed(dB)

50.00000	97.94009	41.35140	97.94009
100.00000	61.59750	-94.94570	61.59750
150.00000	68.84993	75.90990	68.84993
200.00000	60.32996	158.34378	60.32996
250.00000	51.40522	391.44108	51.40522
300.00000	65.41076	464.54257	65.41076
350.00000	57.28686	664.60021	57.28686
400.00000	57.42625	721.50655	57.42625
450.00000	61.57798	740.72331	61.57798
500.00000	64.79273	851.96115	64.79273
550.00000	69.09716	794.05153	69.09716
600.00000	66.40631	756.89283	66.40631
650.00000	74.88850	768.40737	74.88850
700.00000	74.04417	762.56170	74.04417
750.00000	77.30353	730.15921	77.30353
800.00000	78.73660	727.98244	78.73660
850.00000	77.63910	721.69018	77.63910
900.00000	78.27343	727.68810	78.27343
950.00000	80.73708	726.17096	80.73708
1000.00000	82.98444	731.80138	82.98444
1050.00000	86.10758	725.63103	86.10758
1100.00000	89.19052	713.68179	89.19052
1150.00000	91.12361	698.74473	91.12361
1200.00000	92.40624	685.61354	92.40624
1250.00000	93.10537	671.06047	93.10537
1300.00000	93.47744	662.33163	93.47744
1350.00000	94.24075	655.93870	94.24075
1400.00000	95.25821	648.11217	95.25821
1450.00000	96.24530	636.69064	96.24530
1500.00000	96.64869	625.34220	96.64869
1550.00000	96.59653	615.24144	96.59653
1600.00000	96.99344	611.77082	96.99344
1650.00000	97.69471	608.71823	97.69471
1700.00000	101.52469	592.61787	101.52469
1750.00000	98.53016	572.59767	98.53016
1800.00000	98.30243	567.13180	98.30243
1850.00000	98.08317	558.90461	98.08317
1900.00000	97.88795	551.44857	97.88795
1950.00000	97.21337	545.94550	97.21337
2000.00000	96.63919	542.20870	96.63919
2050.00000	96.32398	542.10344	96.32398
2100.00000	97.13456	540.96634	97.13456
2150.00000	97.98369	532.53832	97.98369
2200.00000	97.92603	520.45190	97.92603
2250.00000	97.10817	512.89856	97.10817
2300.00000	96.49601	510.38498	96.49601
2350.00000	96.66690	505.77048	96.66690
2400.00000	96.61711	499.24067	96.61711
2450.00000	96.08124	491.41810	96.08124
2500.00000	95.27913	488.66614	95.27913
2550.00000	95.00383	484.73570	95.00383
2600.00000	94.58228	481.18321	94.58228
2650.00000	94.25545	478.96112	94.25545
2700.00000	93.99560	474.50530	93.99560
2750.00000	93.44537	470.43234	93.44537
2800.00000	92.86589	466.97170	92.86589
2850.00000	92.43581	465.33545	92.43581
2900.00000	92.07282	462.68296	92.07282
2950.00000	91.61177	460.22681	91.61177
3000.00000	90.96517	459.13869	90.96517
3050.00000	90.51255	459.51607	90.51255
3100.00000	90.46878	458.66042	90.46878
3150.00000	90.13141	457.28006	90.13141
3200.00000	89.78401	455.11295	89.78401
3250.00000	89.61465	454.97328	89.61465
3300.00000	89.44200	453.05401	89.44200
3350.00000	89.17601	450.91495	89.17601
3400.00000	88.58587	448.35208	88.58587
3450.00000	88.09074	449.73191	88.09074
3500.00000	87.89557	450.42438	87.89557
3550.00000	88.07171	447.45596	88.07171
3600.00000	87.25162	442.65007	87.25162
3650.00000	86.46550	443.47452	86.46550
3700.00000	85.82972	442.28049	85.82972
3750.00000	85.02331	439.56583	85.02331
3800.00000	83.71430	439.70653	83.71430
3850.00000	81.92118	437.87127	81.92118
3900.00000	80.19625	446.02512	80.19625
3950.00000	78.20479	461.70106	78.20479
4000.00000	76.32710	479.53796	76.32710
4050.00000	77.46234	513.66746	77.46234
4100.00000	80.74636	531.64521	80.74636
4150.00000	84.38744	535.72226	84.38744
4200.00000	86.80894	536.98698	86.80894
4250.00000	88.17335	530.20061	88.17335
4300.00000	89.49560	531.71593	89.49560
4350.00000	91.04012	530.64660	91.04012
4400.00000	92.45498	527.61228	92.45498
4450.00000	93.55609	523.43635	93.55609
4500.00000	94.62459	519.83498	94.62459
4550.00000	95.47177	516.57845	95.47177
4600.00000	96.40462	512.76580	96.40462
4650.00000	97.26116	509.43692	97.26116
4700.00000	98.00180	506.11228	98.00180
4750.00000	98.75458	503.53917	98.75458
4800.00000	99.64418	501.32564	99.64418
4850.00000	100.61620	498.49880	100.61620
4900.00000	101.63963	494.59413	101.63963
4950.00000	102.69994	490.75897	102.69994
5000.00000	103.80411	485.91752	103.80411
5050.00000	104.96252	480.65030	104.96252
5100.00000	106.24313	474.83935	106.24313
5150.00000	107.75795	467.97158	107.75795
5200.00000	109.69119	458.33560	109.69119
5250.00000	112.24139	441.94924	112.24139
5300.00000	114.57508	405.40360	114.57508
5350.00000	111.32843	356.50116	111.32843
5400.00000	104.68084	339.03278	104.68084
5450.00000	98.71687	350.24662	98.71687
5500.00000	96.91807	378.90359	96.91807
5550.00000	97.97869	387.70724	97.97869
5600.00000	96.75808	387.32761	96.75808
5650.00000	95.60915	405.34726	95.60915
5700.00000	97.12926	419.96804	97.12926
5750.00000	99.00681	424.32957	99.00681
5800.00000	100.46748	424.45854	100.46748
5850.00000	101.67290	422.53378	101.67290
5900.00000	102.66739	419.40790	102.66739
5950.00000	103.54890	415.70262	103.54890
6000.00000	104.28974	411.29706	104.28974
6050.00000	104.82245	406.33332	104.82245
6100.00000	105.16201	401.61278	105.16201
6150.00000	105.30510	397.87621	105.30510
6200.00000	105.44381	395.78850	105.44381
6250.00000	105.69561	394.76309	105.69561
6300.00000	106.12838	394.10654	106.12838
6350.00000	106.75755	393.43826	106.75755
6400.00000	107.54033	392.21598	107.54033
6450.00000	108.43091	390.10577	108.43091
6500.00000	109.38375	386.94079	109.38375
6550.00000	110.36984	382.79861	110.36984
6600.00000	111.33584	377.75739	111.33584
6650.00000	112.27938	371.93117	112.27938
6700.00000	113.22977	365.11855	113.22977
6750.00000	114.11667	357.14068	114.11667
6800.00000	114.88961	348.06183	114.88961
6850.00000	115.50459	338.00888	115.50459
6900.00000	115.91263	327.24984	115.91263
6950.00000	116.07780	316.25230	116.07780
7000.00000	115.99936	305.55819	115.99936
7050.00000	115.73567	295.77507	115.73567
7100.00000	115.36332	286.90160	115.36332
7150.00000	114.92482	278.92804	114.92482
7200.00000	114.44945	271.73677	114.44945
7250.00000	113.95607	265.30446	113.95607
7300.00000	113.48059	259.54653	113.48059
7350.00000	113.03139	254.26035	113.03139
7400.00000	112.63413	249.46465	112.63413
7450.00000	112.28639	244.58817	112.28639
7500.00000	111.92715	239.59988	111.92715
7550.00000	111.53384	234.56446	111.53384
7600.00000	111.09748	229.95397	111.09748
7650.00000	110.66710	225.55265	110.66710
7700.00000	110.21926	221.60778	110.21926
7750.00000	109.77411	217.90821	109.77411
7800.00000	109.35297	214.57204	109.35297
7850.00000	108.95939	211.51971	108.95939
7900.00000	108.57572	208.52516	108.57572
7950.00000	108.22522	205.96326	108.22522
8000.00000	107.90851	203.45742	107.90851
8050.00000	107.60547	201.03908	107.60547
8100.00000	107.34963	198.69320	107.34963
8150.00000	107.13537	196.47634	107.13537
8200.00000	106.93575	194.04065	106.93575
8250.00000	106.75582	191.68908	106.75582
8300.00000	106.58386	189.16221	106.58386
8350.00000	106.42559	186.77315	106.42559
8400.00000	106.31527	184.48102	106.31527
8450.00000	106.18559	181.93612	106.18559
8500.00000	106.10199	179.33980	106.10199
8550.00000	105.99890	176.67527	105.99890
8600.00000	105.93435	173.99483	105.93435
8650.00000	105.88480	171.21968	105.88480
8700.00000	105.79512	168.08476	105.79512
8750.00000	105.70770	164.94561	105.70770
8800.00000	105.63091	161.81335	105.63091
8850.00000	105.57677	158.57329	105.57677
8900.00000	105.47386	155.13347	105.47386
8950.00000	105.36614	151.61473	105.36614
9000.00000	105.18112	148.24536	105.18112
9050.00000	105.07973	144.92174	105.07973
9100.00000	104.96039	141.47731	104.96039
9150.00000	104.79212	137.64316	104.79212
9200.00000	104.57338	134.37798	104.57338
9250.00000	104.39684	131.04494	104.39684
9300.00000	104.20492	127.27126	104.20492
9350.00000	103.94939	123.70913	103.94939
9400.00000	103.67193	120.36081	103.67193
9450.00000	103.37630	117.23566	103.37630
9500.00000	103.10678	114.31116	103.10678
9550.00000	102.83563	111.54003	102.83563
9600.00000	102.59121	108.80734	102.59121
9650.00000	102.33844	106.14828	102.33844
9700.00000	102.03812	103.46151	102.03812
9750.00000	101.74644	100.77697	101.74644
9800.00000	101.45237	98.60891	101.45237
9850.00000	101.12436	96.08780	101.12436
9900.00000	100.77803	94.38158	100.77803
9950.00000	100.32991	92.70522	100.32991
10000.00000	99.91889	93.17739	99.91889
10050.00000	99.74684	95.80574	99.74684
10100.00000	100.44970	96.69088	100.44970
10150.00000	100.90136	92.01670	100.90136
10200.00000	100.91106	87.19876	100.91106
10250.00000	100.76521	83.65945	100.76521
10300.00000	100.62462	80.58054	100.62462
10350.00000	100.47551	77.84322	100.47551
10400.00000	100.28635	75.09817	100.28635
10450.00000	100.21125	72.80530	100.21125
10500.00000	100.15409	70.19205	100.15409
10550.00000	100.09012	67.71641	100.09012
10600.00000	100.11369	64.72092	100.11369
10650.00000	100.05866	61.82475	100.05866
10700.00000	100.06200	58.84690	100.06200
10750.00000	100.06472	55.83006	100.06472
10800.00000	100.07176	52.08437	100.07176
10850.00000	100.08278	48.57576	100.08278
10900.00000	100.09823	44.89644	100.09823
10950.00000	100.07597	41.02501	100.07597
11000.00000	100.05725	36.76117	100.05725
11050.00000	99.92658	32.61976	99.92658
11100.00000	99.88285	28.28388	99.88285
11150.00000	99.77553	23.71157	99.77553
11200.00000	99.63165	18.99726	99.63165
11250.00000	99.38213	14.06998	99.38213
11300.00000	99.13945	 9.27679	99.13945
11350.00000	98.87815	 4.38320	98.87815
11400.00000	98.52550	-0.68208	98.52550
11450.00000	98.17277	-5.63001	98.17277
11500.00000	97.77073	-10.57556	97.77073
11550.00000	97.33607	-15.52394	97.33607
11600.00000	96.82889	-20.20506	96.82889
11650.00000	96.31749	-24.59051	96.31749
11700.00000	95.84163	-29.36216	95.84163
11750.00000	95.23537	-33.53617	95.23537
11800.00000	94.73203	-37.49063	94.73203
11850.00000	94.19170	-41.34020	94.19170
11900.00000	93.62704	-44.87405	93.62704
11950.00000	93.06588	-48.24353	93.06588
12000.00000	92.55893	-51.21798	92.55893
12050.00000	91.94900	-53.85141	91.94900
12100.00000	91.33087	-57.10519	91.33087
12150.00000	90.69926	-59.53805	90.69926
12200.00000	90.07862	-62.24890	90.07862
12250.00000	89.44253	-64.78454	89.44253
12300.00000	88.61614	-66.93109	88.61614
12350.00000	88.00108	-68.93576	88.00108
12400.00000	87.21890	-71.17201	87.21890
12450.00000	86.71415	-73.47490	86.71415
12500.00000	86.07474	-75.46032	86.07474
12550.00000	85.28388	-77.99986	85.28388
12600.00000	84.65273	-79.94233	84.65273
12650.00000	84.11033	-82.52367	84.11033
12700.00000	83.35895	-84.15924	83.35895
12750.00000	82.81156	-86.16014	82.81156
12800.00000	82.23117	-88.18392	82.23117
12850.00000	81.67374	-90.24060	81.67374
12900.00000	80.99020	-94.13393	80.99020
12950.00000	80.57335	-97.23531	80.57335
13000.00000	79.88931	-100.27629	79.88931
13050.00000	79.44575	-103.99703	79.44575
13100.00000	79.10089	-108.47032	79.10089
13150.00000	78.93837	-112.36463	78.93837
13200.00000	78.95483	-120.33732	78.95483
13250.00000	79.07415	-125.31807	79.07415
13300.00000	79.52014	-131.73751	79.52014
13350.00000	80.27742	-135.91870	80.27742
13400.00000	81.11469	-135.90495	81.11469
13450.00000	81.79418	-132.65748	81.79418
13500.00000	81.72120	-120.27010	81.72120
13550.00000	80.80818	-119.24046	80.80818
13600.00000	79.11101	-123.39217	79.11101
13650.00000	77.77672	-128.46179	77.77672
13700.00000	77.32860	-138.61851	77.32860
13750.00000	76.95213	-149.48026	76.95213
13800.00000	76.85898	-160.47835	76.85898
13850.00000	77.36456	-173.03414	77.36456
13900.00000	77.71702	-186.27197	77.71702
13950.00000	79.15705	-197.06041	79.15705
14000.00000	80.79776	-207.64048	80.79776
14050.00000	83.39869	-210.03749	83.39869
14100.00000	85.96301	-212.64468	85.96301
14150.00000	87.91639	-206.35613	87.91639
14200.00000	88.58466	-195.12213	88.58466
14250.00000	87.75400	-188.82112	87.75400
14300.00000	86.76742	-186.20549	86.76742
14350.00000	86.20132	-192.54108	86.20132
14400.00000	85.74704	-197.32677	85.74704
14450.00000	85.58578	-204.28076	85.58578
14500.00000	85.73292	-211.04568	85.73292
14550.00000	86.04124	-219.68009	86.04124
14600.00000	86.64877	-225.35766	86.64877
14650.00000	87.44662	-232.00998	87.44662
14700.00000	88.45745	-239.13708	88.45745
14750.00000	89.45020	-244.87562	89.45020
14800.00000	90.68549	-249.37616	90.68549
14850.00000	92.05917	-252.16640	92.05917
14900.00000	93.47150	-252.58008	93.47150
14950.00000	94.38348	-250.64592	94.38348
15000.00000	94.88648	-249.63634	94.88648
15050.00000	95.20982	-247.71152	95.20982
15100.00000	95.22068	-249.04408	95.22068
15150.00000	95.24357	-252.21245	95.24357
15200.00000	95.33266	-256.44714	95.33266
15250.00000	95.24140	-261.02051	95.24140
15300.00000	95.51112	-266.23421	95.51112
15350.00000	95.98543	-271.46020	95.98543
15400.00000	96.41306	-277.64107	96.41306
15450.00000	97.05028	-284.14789	97.05028
15500.00000	97.72465	-288.97358	97.72465
15550.00000	98.41962	-293.20462	98.41962
15600.00000	99.22407	-296.52118	99.22407
15650.00000	99.97982	-299.46845	99.97982
15700.00000	100.46679	-301.50575	100.46679
15750.00000	101.02014	-302.88436	101.02014
15800.00000	101.35901	-304.72941	101.35901
15850.00000	101.68822	-306.94724	101.68822
15900.00000	101.85122	-310.69332	101.85122
15950.00000	102.01481	-314.99078	102.01481
16000.00000	102.23041	-319.94382	102.23041
16050.00000	102.54285	-325.10343	102.54285
16100.00000	102.82019	-330.51470	102.82019
16150.00000	103.25989	-335.97947	103.25989
16200.00000	103.66323	-341.07219	103.66323
16250.00000	104.04552	-346.53541	104.04552
16300.00000	104.48418	-351.43876	104.48418
16350.00000	104.91614	-355.69222	104.91614
16400.00000	105.20475	-359.65952	105.20475
16450.00000	105.48315	-363.35979	105.48315
16500.00000	105.61888	-367.36206	105.61888
16550.00000	105.74965	-371.36409	105.74965
16600.00000	105.82675	-375.62962	105.82675
16650.00000	105.83181	-380.22843	105.83181
16700.00000	105.86935	-384.87857	105.86935
16750.00000	105.93067	-389.85450	105.93067
16800.00000	105.98158	-394.34160	105.98158
16850.00000	106.09241	-399.17640	106.09241
16900.00000	106.19391	-403.18959	106.19391
16950.00000	106.27344	-407.35774	106.27344
17000.00000	106.38168	-411.25502	106.38168
17050.00000	106.45462	-414.53606	106.45462
17100.00000	106.50936	-417.95295	106.50936
17150.00000	106.56399	-421.26218	106.56399
17200.00000	106.51261	-424.75773	106.51261
17250.00000	106.52726	-428.30492	106.52726
17300.00000	106.52943	-432.04522	106.52943
17350.00000	106.51330	-435.55938	106.51330
17400.00000	106.52818	-439.44587	106.52818
17450.00000	106.56807	-443.17537	106.56807
17500.00000	106.57261	-446.79815	106.57261
17550.00000	106.62477	-450.46168	106.62477
17600.00000	106.67890	-453.61538	106.67890
17650.00000	106.73514	-456.73212	106.73514
17700.00000	106.82794	-459.99055	106.82794
17750.00000	106.85553	-463.08851	106.85553
17800.00000	106.89416	-466.09610	106.89416
17850.00000	106.91546	-469.18765	106.91546
17900.00000	106.93628	-472.52383	106.93628
17950.00000	106.93308	-475.66933	106.93308
18000.00000	106.96489	-478.98582	106.96489
18050.00000	106.98415	-482.52170	106.98415
18100.00000	107.00971	-485.86940	107.00971
18150.00000	107.03415	-489.22201	107.03415
18200.00000	107.05286	-492.70606	107.05286
18250.00000	107.07213	-496.14316	107.07213
18300.00000	107.08114	-499.51247	107.08114
18350.00000	107.07284	-502.91089	107.07284
18400.00000	107.07778	-506.25025	107.07778
18450.00000	107.05625	-509.50990	107.05625
18500.00000	107.05641	-512.77135	107.05641
18550.00000	107.04693	-516.19649	107.04693
18600.00000	106.97755	-519.46314	106.97755
18650.00000	106.98259	-522.81789	106.98259
18700.00000	106.95545	-525.86558	106.95545
18750.00000	106.89460	-529.09580	106.89460
18800.00000	106.84794	-532.27903	106.84794
18850.00000	106.80086	-535.13499	106.80086
18900.00000	106.70003	-538.12249	106.70003
18950.00000	106.64746	-541.23252	106.64746
19000.00000	106.57592	-544.22719	106.57592
19050.00000	106.50788	-547.29046	106.50788
19100.00000	106.45651	-550.40841	106.45651
19150.00000	106.38885	-553.00499	106.38885
19200.00000	106.34527	-555.94443	106.34527
19250.00000	106.28081	-558.58639	106.28081
19300.00000	106.24822	-561.11901	106.24822
19350.00000	106.22551	-564.11395	106.22551
19400.00000	106.13786	-566.67707	106.13786
19450.00000	106.06219	-569.54738	106.06219
19500.00000	106.05864	-572.04735	106.05864
19550.00000	106.01806	-574.70137	106.01806
19600.00000	105.96557	-577.49343	105.96557
19650.00000	105.92072	-580.19276	105.92072
19700.00000	105.88828	-582.99437	105.88828
19750.00000	105.84893	-585.57241	105.84893
19800.00000	105.82105	-588.03728	105.82105
19850.00000	105.77776	-590.80658	105.77776
19900.00000	105.75439	-593.60358	105.75439
19950.00000	105.69933	-596.06545	105.69933
20000.00000	105.64016	-599.01834	105.64016
20050.00000	105.60091	-601.55641	105.60091
20100.00000	105.56328	-604.08925	105.56328
20150.00000	105.50845	-606.92275	105.50845
20200.00000	105.46474	-609.43835	105.46474
20250.00000	105.43299	-611.80034	105.43299
20300.00000	105.42055	-614.36673	105.42055
20350.00000	105.37058	-616.72872	105.37058
20400.00000	105.33067	-619.23559	105.33067
20450.00000	105.34192	-621.86094	105.34192
20500.00000	105.29649	-624.33570	105.29649
20550.00000	105.25349	-627.12450	105.25349
20600.00000	105.26277	-629.63657	105.26277
20650.00000	105.25985	-632.33070	105.25985
20700.00000	105.26084	-634.64983	105.26084
20750.00000	105.20732	-637.32999	105.20732
20800.00000	105.21359	-639.95132	105.21359
20850.00000	105.19457	-642.82523	105.19457
20900.00000	105.15026	-645.52109	105.15026
20950.00000	105.13053	-648.10128	105.13053
21000.00000	105.14535	-650.94257	105.14535
21050.00000	105.12613	-653.85074	105.12613
21100.00000	105.09430	-656.53021	105.09430
21150.00000	105.07622	-659.16895	105.07622
21200.00000	105.04229	-661.78853	105.04229
21250.00000	104.98669	-664.64408	104.98669
21300.00000	104.95023	-667.59046	104.95023
21350.00000	104.91803	-670.34536	104.91803
21400.00000	104.85390	-673.44776	104.85390
21450.00000	104.85759	-676.12698	104.85759
21500.00000	104.83595	-678.79488	104.83595
21550.00000	104.80288	-681.48671	104.80288
21600.00000	104.72715	-684.63871	104.72715
21650.00000	104.72084	-687.22735	104.72084
21700.00000	104.64244	-690.52373	104.64244
21750.00000	104.59233	-693.49899	104.59233
21800.00000	104.50825	-696.55642	104.50825
21850.00000	104.48087	-699.49664	104.48087
21900.00000	104.38541	-702.23361	104.38541
21950.00000	104.32173	-705.20655	104.32173
22000.00000	104.16060	-708.04013	104.16060
22050.00000	104.04525	-710.65058	104.04525
22100.00000	103.96170	-713.19553	103.96170
22150.00000	103.88982	-715.96061	103.88982
22200.00000	103.81390	-718.88698	103.81390
22250.00000	103.75088	-721.65085	103.75088
22300.00000	103.63890	-724.57934	103.63890
22350.00000	103.52107	-727.66916	103.52107
22400.00000	103.42516	-730.75171	103.42516
22450.00000	103.30090	-733.57621	103.30090
22500.00000	103.13536	-736.44977	103.13536
22550.00000	103.02218	-739.39317	103.02218
22600.00000	102.82358	-741.98848	102.82358
22650.00000	102.67023	-744.50907	102.67023
22700.00000	102.51961	-747.12001	102.51961
22750.00000	102.35982	-749.98959	102.35982
22800.00000	102.23281	-752.48122	102.23281
22850.00000	102.03032	-754.92412	102.03032
22900.00000	101.87893	-757.08347	101.87893
22950.00000	101.78855	-759.29308	101.78855
23000.00000	101.54783	-761.70797	101.54783
23050.00000	101.39468	-763.90233	101.39468
23100.00000	101.20790	-765.89802	101.20790
