---ACOUSTIC CALIBRATION---
Filename: C:\Data\AZH DATA\AZH82\RightSecondary.calib
Date: 8/27/2019 4:51:01 PM
Format: 4
Probe Tube Correction File: C:\Data\Probe Tube Calibrations\50_ProbeTube.calib
Experiment VIs: 850
EPL_CFTS.exe V12.0.1 (2012)
DAQmx V9.6

Attenuation (dB): 40.000000
Min Freq (Hz): 50.000000
Max Freq (Hz): 49950.000000
Freq Step (Hz): 50.000000
Sample Rate (Hz): 100000.000000
[Smoothing]
Method=None
MA.Iterations=0
MA.Length=0
Loess.Length=0
Loess.Type=Linear
Loess.Robust=FALSE


Freq(Hz)	Mag(dB)	Phase(deg)	Unsmoothed(dB)

50.00000	108.36034	416.26114	108.36034
100.00000	84.04444	567.28806	84.04444
150.00000	81.65080	473.06410	81.65080
200.00000	84.82802	436.01610	84.82802
250.00000	92.12926	418.70673	92.12926
300.00000	87.12771	365.61502	87.12771
350.00000	86.75992	318.87364	86.75992
400.00000	89.40114	312.88885	89.40114
450.00000	85.67083	301.38754	85.67083
500.00000	89.81533	315.97591	89.81533
550.00000	89.51303	316.78815	89.51303
600.00000	91.32417	325.55844	91.32417
650.00000	94.13800	327.76478	94.13800
700.00000	97.10352	314.75534	97.10352
750.00000	98.93938	315.55757	98.93938
800.00000	101.64793	304.92473	101.64793
850.00000	103.92659	293.64799	103.92659
900.00000	105.44054	276.28574	105.44054
950.00000	106.79210	260.13050	106.79210
1000.00000	106.85333	242.49186	106.85333
1050.00000	106.38141	232.84219	106.38141
1100.00000	106.40106	221.41047	106.40106
1150.00000	105.52450	211.49753	105.52450
1200.00000	105.42084	209.38550	105.42084
1250.00000	105.40955	198.73300	105.40955
1300.00000	104.50977	193.43610	104.50977
1350.00000	103.87294	188.69942	103.87294
1400.00000	103.08762	189.35980	103.08762
1450.00000	103.39788	190.02801	103.39788
1500.00000	103.57883	187.60856	103.57883
1550.00000	103.68858	185.26350	103.68858
1600.00000	104.35676	182.47674	104.35676
1650.00000	105.12377	173.99422	105.12377
1700.00000	103.97888	169.71353	103.97888
1750.00000	103.86246	168.29282	103.86246
1800.00000	103.52303	166.94308	103.52303
1850.00000	103.45599	168.83747	103.45599
1900.00000	104.53168	168.48023	104.53168
1950.00000	105.29920	160.08540	105.29920
2000.00000	105.18848	151.30061	105.18848
2050.00000	104.28069	147.54657	104.28069
2100.00000	104.31313	145.72029	104.31313
2150.00000	103.85326	141.77200	103.85326
2200.00000	103.44014	137.96188	103.44014
2250.00000	102.45058	137.05310	102.45058
2300.00000	102.43595	139.23743	102.43595
2350.00000	102.20559	139.42975	102.20559
2400.00000	102.27112	140.26985	102.27112
2450.00000	102.25117	137.31972	102.25117
2500.00000	101.95643	138.53792	101.95643
2550.00000	101.66559	139.86436	101.66559
2600.00000	101.62544	146.43577	101.62544
2650.00000	102.57866	153.28232	102.57866
2700.00000	104.36713	153.73575	104.36713
2750.00000	105.86791	146.14788	105.86791
2800.00000	106.42118	136.72477	106.42118
2850.00000	106.35463	128.12452	106.35463
2900.00000	106.05020	121.64094	106.05020
2950.00000	105.73828	118.02455	105.73828
3000.00000	105.44157	114.08772	105.44157
3050.00000	105.03176	110.86585	105.03176
3100.00000	104.76281	108.39086	104.76281
3150.00000	104.44000	104.06227	104.44000
3200.00000	103.93568	101.04243	103.93568
3250.00000	103.07851	99.04623	103.07851
3300.00000	102.26587	97.50324	102.26587
3350.00000	101.00967	97.97495	101.00967
3400.00000	99.84938	105.78791	99.84938
3450.00000	99.58179	116.00152	99.58179
3500.00000	100.04730	124.01760	100.04730
3550.00000	100.63277	128.24148	100.63277
3600.00000	101.14921	131.10931	101.14921
3650.00000	101.14784	132.76645	101.14784
3700.00000	100.93530	140.49350	100.93530
3750.00000	101.59736	151.97831	101.59736
3800.00000	103.30066	161.35181	103.30066
3850.00000	105.32755	165.19273	105.32755
3900.00000	107.28387	165.88068	107.28387
3950.00000	109.06848	163.04485	109.06848
4000.00000	110.45909	158.51517	110.45909
4050.00000	111.60228	153.80782	111.60228
4100.00000	112.59600	149.55502	112.59600
4150.00000	113.65039	145.80119	113.65039
4200.00000	114.41316	141.73607	114.41316
4250.00000	115.29111	138.25181	115.29111
4300.00000	116.15468	134.93463	116.15468
4350.00000	117.03092	131.71312	117.03092
4400.00000	118.03094	128.94992	118.03094
4450.00000	119.18662	125.83295	119.18662
4500.00000	120.48539	121.58278	120.48539
4550.00000	121.84584	115.96415	121.84584
4600.00000	123.21614	108.97041	123.21614
4650.00000	124.61433	100.45917	124.61433
4700.00000	125.92248	89.91897	125.92248
4750.00000	127.05591	77.36721	127.05591
4800.00000	127.90133	62.94205	127.90133
4850.00000	128.29721	47.41093	128.29721
4900.00000	128.20902	31.78977	128.20902
4950.00000	127.64230	17.24408	127.64230
5000.00000	126.59811	 5.14255	126.59811
5050.00000	125.53612	-3.29224	125.53612
5100.00000	124.28944	-12.87362	124.28944
5150.00000	121.78220	-15.15603	121.78220
5200.00000	120.67717	 3.24824	120.67717
5250.00000	123.77157	 8.89933	123.77157
5300.00000	125.47033	-4.38858	125.47033
5350.00000	125.78711	-17.56988	125.78711
5400.00000	125.57310	-28.49540	125.57310
5450.00000	125.16907	-37.32261	125.16907
5500.00000	124.70952	-44.94860	124.70952
5550.00000	124.25023	-51.53622	124.25023
5600.00000	123.79336	-57.51076	123.79336
5650.00000	123.35505	-62.96629	123.35505
5700.00000	122.91384	-68.26567	122.91384
5750.00000	122.49876	-72.97768	122.49876
5800.00000	122.08725	-77.57012	122.08725
5850.00000	121.71116	-81.96874	121.71116
5900.00000	121.34345	-86.13468	121.34345
5950.00000	120.98155	-90.17321	120.98155
6000.00000	120.63536	-94.03952	120.63536
6050.00000	120.26434	-97.82868	120.26434
6100.00000	119.92411	-101.50181	119.92411
6150.00000	119.59227	-105.20094	119.59227
6200.00000	119.23478	-108.76047	119.23478
6250.00000	118.92215	-112.29660	118.92215
6300.00000	118.61330	-115.63615	118.61330
6350.00000	118.28238	-119.00640	118.28238
6400.00000	117.96747	-122.17956	117.96747
6450.00000	117.66422	-125.32421	117.66422
6500.00000	117.34726	-128.38853	117.34726
6550.00000	117.02035	-131.34323	117.02035
6600.00000	116.69403	-134.09398	116.69403
6650.00000	116.38217	-136.79069	116.38217
6700.00000	116.06948	-139.66199	116.06948
6750.00000	115.77461	-142.04535	115.77461
6800.00000	115.46514	-144.34515	115.46514
6850.00000	115.18300	-146.53167	115.18300
6900.00000	114.93185	-148.83139	114.93185
6950.00000	114.65012	-150.86629	114.65012
7000.00000	114.43279	-152.93068	114.43279
7050.00000	114.19909	-155.19315	114.19909
7100.00000	114.00278	-157.37184	114.00278
7150.00000	113.81025	-159.24614	113.81025
7200.00000	113.59371	-161.08934	113.59371
7250.00000	113.38943	-162.96550	113.38943
7300.00000	113.25963	-164.64759	113.25963
7350.00000	113.08610	-166.13923	113.08610
7400.00000	112.98930	-167.74070	112.98930
7450.00000	112.94042	-169.44556	112.94042
7500.00000	112.88783	-171.21587	112.88783
7550.00000	112.89779	-173.13880	112.89779
7600.00000	112.87340	-175.20264	112.87340
7650.00000	112.89179	-177.36327	112.89179
7700.00000	112.98937	-179.91060	112.98937
7750.00000	112.99274	-182.81045	112.99274
7800.00000	112.99493	-186.00584	112.99493
7850.00000	112.97271	-189.22644	112.97271
7900.00000	112.95535	-192.41661	112.95535
7950.00000	112.91339	-196.01820	112.91339
8000.00000	112.83278	-199.87994	112.83278
8050.00000	112.73486	-203.79736	112.73486
8100.00000	112.59167	-207.11865	112.59167
8150.00000	112.37814	-210.73693	112.37814
8200.00000	112.11989	-214.24222	112.11989
8250.00000	111.81171	-217.72864	111.81171
8300.00000	111.56075	-220.82536	111.56075
8350.00000	111.28346	-223.77845	111.28346
8400.00000	110.97869	-227.22978	110.97869
8450.00000	110.63058	-230.02620	110.63058
8500.00000	110.30135	-233.08337	110.30135
8550.00000	110.01709	-235.45256	110.01709
8600.00000	109.70323	-238.23394	109.70323
8650.00000	109.37121	-240.39318	109.37121
8700.00000	109.07753	-242.94919	109.07753
8750.00000	108.73907	-244.30101	108.73907
8800.00000	108.43730	-246.61428	108.43730
8850.00000	108.09259	-248.50735	108.09259
8900.00000	107.84007	-249.82822	107.84007
8950.00000	107.55037	-251.65776	107.55037
9000.00000	107.23322	-253.26272	107.23322
9050.00000	107.03710	-255.29748	107.03710
9100.00000	106.81795	-257.18505	106.81795
9150.00000	106.65011	-258.98020	106.65011
9200.00000	106.55827	-260.77136	106.55827
9250.00000	106.38187	-262.42159	106.38187
9300.00000	106.26068	-263.49269	106.26068
9350.00000	106.14179	-264.64996	106.14179
9400.00000	105.91195	-265.41280	105.91195
9450.00000	105.75137	-266.55658	105.75137
9500.00000	105.58611	-267.78872	105.58611
9550.00000	105.42783	-269.60965	105.42783
9600.00000	105.38159	-272.17076	105.38159
9650.00000	105.35016	-274.79084	105.35016
9700.00000	105.36284	-276.55339	105.36284
9750.00000	105.47971	-279.00209	105.47971
9800.00000	105.43340	-280.11092	105.43340
9850.00000	105.38073	-280.94912	105.38073
9900.00000	105.14179	-282.54097	105.14179
9950.00000	104.99042	-283.67826	104.99042
10000.00000	104.82426	-285.73052	104.82426
10050.00000	104.56556	-287.66574	104.56556
10100.00000	104.29710	-290.03160	104.29710
10150.00000	103.94110	-293.37469	103.94110
10200.00000	103.74553	-296.59455	103.74553
10250.00000	103.59656	-300.23588	103.59656
10300.00000	103.67854	-303.14045	103.67854
10350.00000	103.69888	-305.28484	103.69888
10400.00000	103.64910	-307.40705	103.64910
10450.00000	103.63894	-309.14940	103.63894
10500.00000	103.48048	-310.68143	103.48048
10550.00000	103.20392	-312.71980	103.20392
10600.00000	102.87749	-315.12095	102.87749
10650.00000	102.62430	-317.36025	102.62430
10700.00000	102.46124	-320.95680	102.46124
10750.00000	102.33684	-323.71261	102.33684
10800.00000	102.09162	-326.15072	102.09162
10850.00000	101.84817	-329.70807	101.84817
10900.00000	101.66454	-332.32275	101.66454
10950.00000	101.50034	-334.44487	101.50034
11000.00000	101.31619	-336.31852	101.31619
11050.00000	100.91830	-337.75282	100.91830
11100.00000	100.50625	-339.62928	100.50625
11150.00000	99.88902	-341.50221	99.88902
11200.00000	99.39958	-344.15357	99.39958
11250.00000	98.82440	-347.28926	98.82440
11300.00000	98.41251	-350.26731	98.41251
11350.00000	98.10639	-351.75181	98.10639
11400.00000	97.70210	-352.68691	97.70210
11450.00000	97.27347	-353.15902	97.27347
11500.00000	96.92673	-352.23495	96.92673
11550.00000	96.31682	-352.13725	96.31682
11600.00000	95.91943	-353.51632	95.91943
11650.00000	95.40015	-353.18888	95.40015
11700.00000	95.07378	-353.72277	95.07378
11750.00000	94.81555	-354.57749	94.81555
11800.00000	94.66184	-355.75758	94.66184
11850.00000	94.69667	-354.83047	94.69667
11900.00000	94.51118	-353.80565	94.51118
11950.00000	94.35628	-351.92203	94.35628
12000.00000	93.95647	-350.23629	93.95647
12050.00000	93.52147	-349.68409	93.52147
12100.00000	93.15718	-351.13670	93.15718
12150.00000	92.83444	-352.25795	92.83444
12200.00000	92.82734	-353.49312	92.82734
12250.00000	92.79772	-354.06662	92.79772
12300.00000	93.93320	-354.08103	93.93320
12350.00000	92.78797	-352.85704	92.78797
12400.00000	92.58103	-351.11229	92.58103
12450.00000	92.33740	-349.86247	92.33740
12500.00000	92.02595	-349.52886	92.02595
12550.00000	91.75620	-349.58837	91.75620
12600.00000	91.48787	-349.98699	91.48787
12650.00000	91.60562	-349.68562	91.60562
12700.00000	91.48529	-349.77959	91.48529
12750.00000	91.44225	-349.14989	91.44225
12800.00000	91.42957	-346.98972	91.42957
12850.00000	91.05052	-345.94033	91.05052
12900.00000	91.10914	-345.11557	91.10914
12950.00000	91.17578	-344.12092	91.17578
13000.00000	90.99484	-344.63653	90.99484
13050.00000	90.93930	-344.92255	90.93930
13100.00000	91.00297	-346.50523	91.00297
13150.00000	91.27811	-346.43512	91.27811
13200.00000	91.55172	-342.86917	91.55172
13250.00000	91.55744	-340.78804	91.55744
13300.00000	91.23263	-337.75380	91.23263
13350.00000	91.06952	-339.29798	91.06952
13400.00000	91.27022	-341.04951	91.27022
13450.00000	91.32125	-341.18765	91.32125
13500.00000	91.62561	-340.12372	91.62561
13550.00000	91.67843	-339.52145	91.67843
13600.00000	91.87646	-337.47091	91.87646
13650.00000	92.05232	-336.55860	92.05232
13700.00000	91.94041	-335.61489	91.94041
13750.00000	91.94748	-334.07394	91.94748
13800.00000	91.92655	-335.05337	91.92655
13850.00000	91.94907	-335.34449	91.94907
13900.00000	92.09509	-335.48631	92.09509
13950.00000	92.44440	-335.23655	92.44440
14000.00000	92.89805	-333.17649	92.89805
14050.00000	93.13594	-333.00942	93.13594
14100.00000	93.13795	-332.20543	93.13795
14150.00000	93.46599	-332.57524	93.46599
14200.00000	93.83097	-331.61871	93.83097
14250.00000	94.51141	-329.98035	94.51141
14300.00000	94.81431	-329.45018	94.81431
14350.00000	95.10626	-326.54814	95.10626
14400.00000	94.95925	-327.03729	94.95925
14450.00000	95.24698	-326.20676	95.24698
14500.00000	95.64424	-327.40561	95.64424
14550.00000	96.17505	-326.91493	96.17505
14600.00000	96.46214	-328.11205	96.46214
14650.00000	97.22196	-327.03353	97.22196
14700.00000	97.77553	-331.30826	97.77553
14750.00000	98.31253	-331.05256	98.31253
14800.00000	98.70492	-330.57704	98.70492
14850.00000	99.22747	-331.43068	99.22747
14900.00000	99.77546	-333.05676	99.77546
14950.00000	100.30614	-334.68767	100.30614
15000.00000	100.81568	-336.31922	100.81568
15050.00000	101.11822	-337.40546	101.11822
15100.00000	101.65732	-339.39162	101.65732
15150.00000	102.34137	-342.22874	102.34137
15200.00000	102.70270	-342.63838	102.70270
15250.00000	102.96919	-345.57921	102.96919
15300.00000	103.55496	-348.46332	103.55496
15350.00000	103.92243	-352.09282	103.92243
15400.00000	104.31224	-353.59541	104.31224
15450.00000	104.64883	-356.63652	104.64883
15500.00000	105.05399	-359.86467	105.05399
15550.00000	105.45157	-363.49136	105.45157
15600.00000	105.77233	-367.03705	105.77233
15650.00000	106.22716	-368.52816	106.22716
15700.00000	106.36546	-372.78268	106.36546
15750.00000	106.77743	-375.26083	106.77743
15800.00000	107.00538	-377.37827	107.00538
15850.00000	107.19081	-380.61691	107.19081
15900.00000	107.38070	-384.37147	107.38070
15950.00000	107.71757	-387.26035	107.71757
16000.00000	107.89848	-389.79867	107.89848
16050.00000	108.14096	-392.82204	108.14096
16100.00000	108.21253	-396.45589	108.21253
16150.00000	108.41391	-399.60399	108.41391
16200.00000	108.66492	-403.11720	108.66492
16250.00000	108.85411	-405.55466	108.85411
16300.00000	109.19013	-408.51495	109.19013
16350.00000	109.27006	-411.54794	109.27006
16400.00000	109.42067	-414.46500	109.42067
16450.00000	109.56400	-417.32610	109.56400
16500.00000	109.70174	-420.47803	109.70174
16550.00000	109.89348	-423.83483	109.89348
16600.00000	110.04989	-426.57024	110.04989
16650.00000	110.14455	-429.57479	110.14455
16700.00000	110.34023	-431.84520	110.34023
16750.00000	110.35328	-434.76087	110.35328
16800.00000	110.48169	-437.92574	110.48169
16850.00000	110.70811	-440.70528	110.70811
16900.00000	110.86416	-443.61910	110.86416
16950.00000	111.01886	-446.19972	111.01886
17000.00000	111.01760	-449.08598	111.01760
17050.00000	111.18080	-451.12039	111.18080
17100.00000	111.25519	-453.05414	111.25519
17150.00000	111.55118	-456.57837	111.55118
17200.00000	111.72236	-459.07407	111.72236
17250.00000	111.80342	-462.32071	111.80342
17300.00000	112.03879	-465.05911	112.03879
17350.00000	112.06349	-467.63451	112.06349
17400.00000	112.30419	-470.61713	112.30419
17450.00000	112.38441	-474.05859	112.38441
17500.00000	112.57132	-476.97798	112.57132
17550.00000	112.72863	-479.98658	112.72863
17600.00000	112.94826	-482.71844	112.94826
17650.00000	113.06726	-486.60952	113.06726
17700.00000	113.16381	-489.95301	113.16381
17750.00000	113.40740	-492.64130	113.40740
17800.00000	113.41993	-496.56730	113.41993
17850.00000	113.56019	-499.36029	113.56019
17900.00000	113.61022	-502.87546	113.61022
17950.00000	113.78236	-506.59633	113.78236
18000.00000	113.86161	-510.50579	113.86161
18050.00000	114.07027	-513.48293	114.07027
18100.00000	114.06121	-517.47014	114.06121
18150.00000	114.10513	-520.36160	114.10513
18200.00000	114.09409	-524.45469	114.09409
18250.00000	114.21851	-527.22276	114.21851
18300.00000	114.29871	-530.69456	114.29871
18350.00000	114.33110	-534.11293	114.33110
18400.00000	114.29837	-537.81047	114.29837
18450.00000	114.26782	-542.38134	114.26782
18500.00000	114.31597	-545.72974	114.31597
18550.00000	114.31196	-548.59148	114.31196
18600.00000	114.40183	-552.54391	114.40183
18650.00000	114.25401	-555.64378	114.25401
18700.00000	114.22840	-559.53409	114.22840
18750.00000	114.26884	-562.86090	114.26884
18800.00000	114.35944	-565.68625	114.35944
18850.00000	114.21272	-569.43022	114.21272
18900.00000	114.16485	-572.67249	114.16485
18950.00000	114.15318	-576.53836	114.15318
19000.00000	113.98288	-579.52500	113.98288
19050.00000	114.07430	-583.02163	114.07430
19100.00000	113.97839	-586.16895	113.97839
19150.00000	114.05001	-589.37118	114.05001
19200.00000	113.96241	-592.44353	113.96241
19250.00000	113.89145	-596.90328	113.89145
19300.00000	113.76583	-599.58462	113.76583
19350.00000	113.72234	-602.99163	113.72234
19400.00000	113.61094	-606.23200	113.61094
19450.00000	113.61356	-609.06234	113.61356
19500.00000	113.45034	-613.18994	113.45034
19550.00000	113.38938	-616.43815	113.38938
19600.00000	113.35922	-620.33202	113.35922
19650.00000	113.20075	-623.20035	113.20075
19700.00000	112.98733	-626.59787	112.98733
19750.00000	112.85014	-629.33795	112.85014
19800.00000	112.81524	-633.55638	112.81524
19850.00000	112.71044	-636.52377	112.71044
19900.00000	112.50887	-640.45991	112.50887
19950.00000	112.33617	-643.60121	112.33617
20000.00000	112.18483	-646.88238	112.18483
20050.00000	112.02719	-650.12226	112.02719
20100.00000	111.76659	-653.37795	111.76659
20150.00000	111.63822	-655.66128	111.63822
20200.00000	111.40103	-659.46923	111.40103
20250.00000	111.14062	-662.44424	111.14062
20300.00000	110.85329	-665.42443	110.85329
20350.00000	110.69991	-668.51556	110.69991
20400.00000	110.38798	-670.54133	110.38798
20450.00000	110.05198	-673.39917	110.05198
20500.00000	109.84309	-676.40776	109.84309
20550.00000	109.35368	-678.14786	109.35368
20600.00000	109.15614	-680.27609	109.15614
20650.00000	108.87033	-682.38233	108.87033
20700.00000	108.50272	-684.28036	108.50272
20750.00000	108.26639	-686.06486	108.26639
20800.00000	107.92407	-687.26138	107.92407
20850.00000	107.69298	-688.80248	107.69298
20900.00000	107.34944	-689.92356	107.34944
20950.00000	107.06218	-690.44639	107.06218
21000.00000	106.81566	-691.11582	106.81566
21050.00000	106.73737	-691.36400	106.73737
21100.00000	106.51364	-691.46891	106.51364
21150.00000	106.43662	-692.06747	106.43662
21200.00000	106.37557	-692.04602	106.37557
21250.00000	106.30018	-693.48367	106.30018
21300.00000	106.32426	-693.36738	106.32426
21350.00000	106.29237	-693.75716	106.29237
21400.00000	106.29146	-694.77383	106.29146
21450.00000	106.33289	-695.63875	106.33289
21500.00000	106.39321	-696.94548	106.39321
21550.00000	106.33559	-697.59546	106.33559
21600.00000	106.46300	-698.87444	106.46300
21650.00000	106.48199	-700.35326	106.48199
21700.00000	106.52540	-701.41057	106.52540
21750.00000	106.59858	-702.74118	106.59858
21800.00000	106.65074	-704.22281	106.65074
21850.00000	106.62906	-705.46787	106.62906
21900.00000	106.68880	-707.13079	106.68880
21950.00000	106.75004	-708.43951	106.75004
22000.00000	106.82725	-709.94897	106.82725
22050.00000	106.84186	-711.23443	106.84186
22100.00000	106.85898	-712.88720	106.85898
22150.00000	106.89016	-714.47043	106.89016
22200.00000	106.99383	-716.06691	106.99383
22250.00000	106.96492	-717.11906	106.96492
22300.00000	106.87794	-718.89371	106.87794
22350.00000	107.04121	-720.72265	107.04121
22400.00000	107.09336	-722.54090	107.09336
22450.00000	107.05864	-723.80559	107.05864
22500.00000	107.03657	-724.19422	107.03657
22550.00000	107.05552	-726.12910	107.05552
22600.00000	107.07645	-728.43433	107.07645
22650.00000	107.13342	-729.83929	107.13342
