---ACOUSTIC CALIBRATION---
Filename: C:\Data\AZH DATA\AZH82\RightPrimary.calib
Date: 8/27/2019 4:50:20 PM
Format: 4
Probe Tube Correction File: C:\Data\Probe Tube Calibrations\50_ProbeTube.calib
Experiment VIs: 850
EPL_CFTS.exe V12.0.1 (2012)
DAQmx V9.6

Attenuation (dB): 40.000000
Min Freq (Hz): 50.000000
Max Freq (Hz): 49950.000000
Freq Step (Hz): 50.000000
Sample Rate (Hz): 100000.000000
[Smoothing]
Method=None
MA.Iterations=0
MA.Length=0
Loess.Length=0
Loess.Type=Linear
Loess.Robust=FALSE


Freq(Hz)	Mag(dB)	Phase(deg)	Unsmoothed(dB)

50.00000	101.58083	363.38593	101.58083
100.00000	79.48772	351.54164	79.48772
150.00000	78.75205	511.36057	78.75205
200.00000	80.95038	454.10736	80.95038
250.00000	90.69864	445.43019	90.69864
300.00000	83.82807	394.57230	83.82807
350.00000	84.55497	331.74688	84.55497
400.00000	86.24247	369.10590	86.24247
450.00000	86.32677	370.68902	86.32677
500.00000	90.05543	382.10649	90.05543
550.00000	90.74577	371.27436	90.74577
600.00000	93.84738	370.71529	93.84738
650.00000	97.22113	355.18404	97.22113
700.00000	99.09252	336.07334	99.09252
750.00000	101.10897	318.88469	101.10897
800.00000	101.84036	291.61860	101.84036
850.00000	101.26933	277.58123	101.26933
900.00000	99.55797	259.89521	99.55797
950.00000	97.81517	257.78622	97.81517
1000.00000	96.28919	258.66785	96.28919
1050.00000	94.22510	271.99451	94.22510
1100.00000	96.11334	296.13116	96.11334
1150.00000	98.82631	300.10264	98.82631
1200.00000	101.79319	299.18648	101.79319
1250.00000	103.37448	290.42263	103.37448
1300.00000	105.10427	284.92515	105.10427
1350.00000	106.29832	275.18245	106.29832
1400.00000	107.17521	268.67616	107.17521
1450.00000	108.11742	261.13087	108.11742
1500.00000	109.21733	254.07310	109.21733
1550.00000	109.98521	245.82694	109.98521
1600.00000	111.33569	236.88973	111.33569
1650.00000	112.40175	219.36667	112.40175
1700.00000	111.10389	209.79746	111.10389
1750.00000	110.87175	203.84811	110.87175
1800.00000	110.57342	199.08877	110.57342
1850.00000	110.72566	198.53235	110.72566
1900.00000	111.87153	194.72736	111.87153
1950.00000	112.58209	181.42711	112.58209
2000.00000	111.65299	169.65783	111.65299
2050.00000	110.39519	174.64888	110.39519
2100.00000	112.24234	173.28681	112.24234
2150.00000	112.84531	162.09770	112.84531
2200.00000	112.76030	152.13280	112.76030
2250.00000	112.14522	145.11169	112.14522
2300.00000	112.30673	139.53938	112.30673
2350.00000	112.02194	132.86167	112.02194
2400.00000	111.74713	127.61553	111.74713
2450.00000	111.45924	121.13221	111.45924
2500.00000	111.08866	116.24869	111.08866
2550.00000	110.64012	110.30826	110.64012
2600.00000	110.13163	106.27726	110.13163
2650.00000	109.65351	102.34699	109.65351
2700.00000	109.14251	98.46453	109.14251
2750.00000	108.54635	95.20364	108.54635
2800.00000	107.96978	92.48305	107.96978
2850.00000	107.40183	90.18921	107.40183
2900.00000	106.78084	88.06489	106.78084
2950.00000	106.14370	87.21086	106.14370
3000.00000	105.44923	85.72408	105.44923
3050.00000	104.68924	84.84959	104.68924
3100.00000	104.04070	85.32501	104.04070
3150.00000	102.86505	86.02297	102.86505
3200.00000	101.53320	91.88115	101.53320
3250.00000	100.56264	101.62952	100.56264
3300.00000	99.99709	113.11481	99.99709
3350.00000	100.12480	130.15870	100.12480
3400.00000	101.93482	147.37428	101.93482
3450.00000	104.54075	154.85699	104.54075
3500.00000	107.11216	156.32494	107.11216
3550.00000	109.16633	153.50866	109.16633
3600.00000	110.95165	149.82647	110.95165
3650.00000	112.40215	144.39089	112.40215
3700.00000	113.69283	139.59611	113.69283
3750.00000	115.00282	134.30321	115.00282
3800.00000	116.21094	127.95651	116.21094
3850.00000	117.25559	121.19680	117.25559
3900.00000	118.21635	114.44751	118.21635
3950.00000	119.16364	107.25437	119.16364
4000.00000	119.98135	99.81604	119.98135
4050.00000	120.78456	92.48299	120.78456
4100.00000	121.61402	84.99560	121.61402
4150.00000	122.62087	76.64277	122.62087
4200.00000	123.36696	66.67594	123.36696
4250.00000	124.06077	55.58494	124.06077
4300.00000	124.51307	43.45033	124.51307
4350.00000	124.63668	30.94531	124.63668
4400.00000	124.50833	19.19772	124.50833
4450.00000	124.19274	 8.41319	124.19274
4500.00000	123.79493	-1.38814	123.79493
4550.00000	123.34640	-10.53579	123.34640
4600.00000	122.84748	-19.02464	122.84748
4650.00000	122.39705	-26.96667	122.39705
4700.00000	121.89531	-35.34549	121.89531
4750.00000	121.27213	-43.91469	121.27213
4800.00000	120.45381	-52.61417	120.45381
4850.00000	119.35563	-60.41673	119.35563
4900.00000	118.02535	-66.30573	118.02535
4950.00000	116.63324	-69.59082	116.63324
5000.00000	115.35498	-70.21558	115.35498
5050.00000	114.21703	-70.13073	114.21703
5100.00000	113.01132	-66.30478	113.01132
5150.00000	112.94547	-60.83635	112.94547
5200.00000	112.11596	-56.28210	112.11596
5250.00000	113.44801	-42.88873	113.44801
5300.00000	115.93874	-50.35773	115.93874
5350.00000	116.22075	-63.59601	116.22075
5400.00000	115.68283	-71.63089	115.68283
5450.00000	115.15418	-76.13772	115.15418
5500.00000	114.72946	-79.47396	114.72946
5550.00000	114.41375	-82.14610	114.41375
5600.00000	114.13919	-84.63937	114.13919
5650.00000	113.93541	-87.02323	113.93541
5700.00000	113.73822	-89.61617	113.73822
5750.00000	113.57892	-91.91280	113.57892
5800.00000	113.41954	-94.42812	113.41954
5850.00000	113.26830	-96.75605	113.26830
5900.00000	113.13929	-99.24802	113.13929
5950.00000	113.02658	-101.61605	113.02658
6000.00000	112.90409	-103.80630	112.90409
6050.00000	112.81192	-106.10147	112.81192
6100.00000	112.74078	-108.39203	112.74078
6150.00000	112.67632	-110.72469	112.67632
6200.00000	112.60579	-113.26127	112.60579
6250.00000	112.58783	-115.86302	112.58783
6300.00000	112.52203	-118.63573	112.52203
6350.00000	112.45845	-121.45920	112.45845
6400.00000	112.37736	-124.08947	112.37736
6450.00000	112.31806	-126.96587	112.31806
6500.00000	112.22363	-129.71030	112.22363
6550.00000	112.13939	-132.34587	112.13939
6600.00000	112.07450	-134.98106	112.07450
6650.00000	112.00097	-137.51997	112.00097
6700.00000	111.95428	-140.36394	111.95428
6750.00000	111.88964	-142.94292	111.88964
6800.00000	111.82858	-145.49945	111.82858
6850.00000	111.79489	-148.21106	111.79489
6900.00000	111.75925	-150.93142	111.75925
6950.00000	111.73630	-153.53771	111.73630
7000.00000	111.71578	-156.22956	111.71578
7050.00000	111.69651	-159.22581	111.69651
7100.00000	111.66963	-162.24483	111.66963
7150.00000	111.64856	-165.17207	111.64856
7200.00000	111.63856	-168.29001	111.63856
7250.00000	111.56366	-171.57848	111.56366
7300.00000	111.55476	-174.95924	111.55476
7350.00000	111.49924	-178.06688	111.49924
7400.00000	111.47070	-181.53456	111.47070
7450.00000	111.38467	-185.08791	111.38467
7500.00000	111.36032	-188.48665	111.36032
7550.00000	111.23467	-192.29085	111.23467
7600.00000	111.11217	-195.69877	111.11217
7650.00000	110.98747	-199.24933	110.98747
7700.00000	110.89604	-202.76521	110.89604
7750.00000	110.72303	-206.31318	110.72303
7800.00000	110.57774	-209.86685	110.57774
7850.00000	110.42093	-213.28591	110.42093
7900.00000	110.24500	-216.59925	110.24500
7950.00000	110.08815	-220.20440	110.08815
8000.00000	109.92323	-223.63429	109.92323
8050.00000	109.69978	-227.36078	109.69978
8100.00000	109.49526	-230.17758	109.49526
8150.00000	109.25017	-233.40635	109.25017
8200.00000	109.02990	-236.43817	109.02990
8250.00000	108.75877	-239.85260	108.75877
8300.00000	108.48413	-242.94977	108.48413
8350.00000	108.20039	-245.75952	108.20039
8400.00000	107.91270	-249.13531	107.91270
8450.00000	107.57967	-252.25462	107.57967
8500.00000	107.28786	-255.47691	107.28786
8550.00000	107.03233	-258.38874	107.03233
8600.00000	106.71726	-261.71493	106.71726
8650.00000	106.40026	-264.68099	106.40026
8700.00000	106.14206	-267.91871	106.14206
8750.00000	105.77878	-269.72259	105.77878
8800.00000	105.50640	-272.58485	105.50640
8850.00000	105.12004	-274.88141	105.12004
8900.00000	104.78287	-276.64297	104.78287
8950.00000	104.43774	-278.92554	104.43774
9000.00000	103.97061	-281.07278	103.97061
9050.00000	103.59332	-283.33672	103.59332
9100.00000	103.21640	-285.40776	103.21640
9150.00000	102.88258	-287.59643	102.88258
9200.00000	102.57259	-290.02621	102.57259
9250.00000	102.29185	-292.23813	102.29185
9300.00000	102.09664	-294.34487	102.09664
9350.00000	101.94164	-295.88879	101.94164
9400.00000	101.65631	-297.13087	101.65631
9450.00000	101.47993	-297.93046	101.47993
9500.00000	101.32677	-297.76276	101.32677
9550.00000	101.24027	-297.70711	101.24027
9600.00000	101.16590	-299.06153	101.16590
9650.00000	100.93250	-300.66796	100.93250
9700.00000	100.67708	-301.50752	100.67708
9750.00000	100.51832	-303.98995	100.51832
9800.00000	100.26748	-305.24293	100.26748
9850.00000	100.10373	-306.94337	100.10373
9900.00000	99.85409	-309.02356	99.85409
9950.00000	99.77380	-310.29963	99.77380
10000.00000	99.72159	-312.23455	99.72159
10050.00000	99.63599	-313.52264	99.63599
10100.00000	99.46362	-314.64217	99.46362
10150.00000	99.21347	-316.39655	99.21347
10200.00000	99.02596	-317.85151	99.02596
10250.00000	98.78113	-319.85823	98.78113
10300.00000	98.68183	-321.80103	98.68183
10350.00000	98.45668	-324.01238	98.45668
10400.00000	98.22127	-326.79640	98.22127
10450.00000	98.18653	-329.67292	98.18653
10500.00000	98.14253	-332.00762	98.14253
10550.00000	98.08432	-334.48892	98.08432
10600.00000	97.99146	-336.26792	97.99146
10650.00000	97.83195	-337.68628	97.83195
10700.00000	97.70349	-340.37034	97.70349
10750.00000	97.54255	-342.27130	97.54255
10800.00000	97.23796	-344.42907	97.23796
10850.00000	96.96579	-347.59234	96.96579
10900.00000	96.73887	-349.89015	96.73887
10950.00000	96.51546	-352.01131	96.51546
11000.00000	96.27408	-354.53696	96.27408
11050.00000	95.90500	-356.79827	95.90500
11100.00000	95.63985	-359.16451	95.63985
11150.00000	95.26269	-360.87045	95.26269
11200.00000	94.97700	-362.52610	94.97700
11250.00000	94.51939	-364.73758	94.51939
11300.00000	94.07562	-366.95953	94.07562
11350.00000	93.58357	-368.54802	93.58357
11400.00000	93.00188	-370.32162	93.00188
11450.00000	92.60572	-371.98681	92.60572
11500.00000	92.27990	-372.45752	92.27990
11550.00000	91.77027	-372.82577	91.77027
11600.00000	91.50149	-374.16477	91.50149
11650.00000	91.05374	-373.52750	91.05374
11700.00000	90.66753	-373.55914	90.66753
11750.00000	90.35628	-373.60187	90.35628
11800.00000	89.99206	-373.39503	89.99206
11850.00000	89.70651	-371.77236	89.70651
11900.00000	89.24621	-371.61248	89.24621
11950.00000	89.07193	-370.36861	89.07193
12000.00000	88.75175	-368.75611	88.75175
12050.00000	88.57087	-367.76024	88.57087
12100.00000	88.47758	-368.20004	88.47758
12150.00000	88.28744	-368.14533	88.28744
12200.00000	88.31327	-367.45990	88.31327
12250.00000	88.25004	-366.69333	88.25004
12300.00000	89.35282	-365.70106	89.35282
12350.00000	88.22523	-365.26841	88.22523
12400.00000	88.22609	-364.15383	88.22609
12450.00000	88.19109	-363.01364	88.19109
12500.00000	88.05078	-363.14784	88.05078
12550.00000	88.08634	-363.14819	88.08634
12600.00000	88.05840	-364.18787	88.05840
12650.00000	88.32606	-365.01486	88.32606
12700.00000	88.28244	-364.96820	88.28244
12750.00000	88.35237	-365.78014	88.35237
12800.00000	88.44852	-365.44026	88.44852
12850.00000	88.14979	-365.39289	88.14979
12900.00000	88.20129	-366.16446	88.20129
12950.00000	88.16814	-366.82743	88.16814
13000.00000	88.10778	-367.94778	88.10778
13050.00000	88.10625	-367.72008	88.10625
13100.00000	87.94692	-369.48914	87.94692
13150.00000	88.12752	-370.38606	88.12752
13200.00000	88.16830	-369.54051	88.16830
13250.00000	88.10784	-369.87796	88.10784
13300.00000	87.99795	-367.89206	87.99795
13350.00000	87.90665	-368.69200	87.90665
13400.00000	88.09356	-369.25641	88.09356
13450.00000	87.89296	-368.50624	87.89296
13500.00000	88.06064	-368.26692	88.06064
13550.00000	87.86288	-368.94181	87.86288
13600.00000	88.00001	-368.27976	88.00001
13650.00000	87.93797	-367.61269	87.93797
13700.00000	87.92657	-368.10573	87.92657
13750.00000	87.76990	-368.01551	87.76990
13800.00000	87.70353	-369.81996	87.70353
13850.00000	87.76467	-371.18803	87.76467
13900.00000	87.78902	-370.95755	87.78902
13950.00000	87.97075	-369.99551	87.97075
14000.00000	88.21350	-368.40992	88.21350
14050.00000	88.29693	-368.62389	88.29693
14100.00000	88.20436	-367.52115	88.20436
14150.00000	88.36050	-368.60738	88.36050
14200.00000	88.61826	-367.98298	88.61826
14250.00000	89.11476	-366.52623	89.11476
14300.00000	89.12660	-365.90876	89.12660
14350.00000	89.30483	-363.92419	89.30483
14400.00000	89.12750	-364.08018	89.12750
14450.00000	89.26622	-362.37399	89.26622
14500.00000	89.36232	-363.44852	89.36232
14550.00000	89.72546	-363.27924	89.72546
14600.00000	89.88479	-363.36250	89.88479
14650.00000	90.43822	-361.59334	90.43822
14700.00000	90.69969	-365.27715	90.69969
14750.00000	91.00083	-364.21705	91.00083
14800.00000	91.22904	-363.15050	91.22904
14850.00000	91.67694	-363.12581	91.67694
14900.00000	92.14095	-362.76913	92.14095
14950.00000	92.54919	-363.29794	92.54919
15000.00000	93.01664	-364.36974	93.01664
15050.00000	93.37736	-363.16216	93.37736
15100.00000	93.87671	-363.29581	93.87671
15150.00000	94.44601	-365.06886	94.44601
15200.00000	94.73576	-365.60127	94.73576
15250.00000	95.05358	-367.61308	95.05358
15300.00000	95.71007	-369.66869	95.71007
15350.00000	96.06430	-372.41306	96.06430
15400.00000	96.44365	-372.94561	96.44365
15450.00000	96.85823	-375.63829	96.85823
15500.00000	97.26742	-377.89679	97.26742
15550.00000	97.65498	-380.60488	97.65498
15600.00000	97.86995	-383.19486	97.86995
15650.00000	98.33863	-384.02979	98.33863
15700.00000	98.45110	-387.69874	98.45110
15750.00000	98.91814	-389.47599	98.91814
15800.00000	99.20334	-391.39523	99.20334
15850.00000	99.46675	-393.52261	99.46675
15900.00000	99.61634	-396.21082	99.61634
15950.00000	99.91444	-398.61143	99.91444
16000.00000	100.21294	-400.79213	100.21294
16050.00000	100.58328	-402.77675	100.58328
16100.00000	100.69816	-405.68504	100.69816
16150.00000	100.91094	-407.90280	100.91094
16200.00000	101.23280	-411.00201	101.23280
16250.00000	101.47182	-413.39625	101.47182
16300.00000	101.90779	-415.92439	101.90779
16350.00000	102.13291	-418.48960	102.13291
16400.00000	102.38888	-420.68238	102.38888
16450.00000	102.66329	-423.45896	102.66329
16500.00000	102.85648	-426.29422	102.85648
16550.00000	103.14384	-429.71448	103.14384
16600.00000	103.44996	-432.33982	103.44996
16650.00000	103.61651	-435.09356	103.61651
16700.00000	103.83291	-437.89999	103.83291
16750.00000	103.98663	-441.46216	103.98663
16800.00000	104.21545	-444.59064	104.21545
16850.00000	104.49142	-447.61541	104.49142
16900.00000	104.69149	-450.97981	104.69149
16950.00000	104.86949	-454.08568	104.86949
17000.00000	104.91596	-457.40027	104.91596
17050.00000	105.12106	-459.61109	105.12106
17100.00000	105.15276	-461.92831	105.15276
17150.00000	105.44157	-465.82719	105.44157
17200.00000	105.57756	-468.85546	105.57756
17250.00000	105.66321	-472.43761	105.66321
17300.00000	105.88457	-475.48602	105.88457
17350.00000	105.87937	-478.13496	105.87937
17400.00000	106.06259	-481.26840	106.06259
17450.00000	106.11688	-484.96385	106.11688
17500.00000	106.29684	-487.87703	106.29684
17550.00000	106.38960	-490.95773	106.38960
17600.00000	106.60295	-493.74609	106.60295
17650.00000	106.66145	-497.55000	106.66145
17700.00000	106.72809	-500.97797	106.72809
17750.00000	106.94675	-503.57587	106.94675
17800.00000	106.93966	-507.33883	106.93966
17850.00000	107.07136	-510.17190	107.07136
17900.00000	107.13468	-513.58092	107.13468
17950.00000	107.26764	-517.20100	107.26764
18000.00000	107.32879	-520.89815	107.32879
18050.00000	107.53583	-523.71909	107.53583
18100.00000	107.50844	-527.80197	107.50844
18150.00000	107.56977	-530.69624	107.56977
18200.00000	107.54742	-534.59701	107.54742
18250.00000	107.65154	-537.48462	107.65154
18300.00000	107.74271	-540.90950	107.74271
18350.00000	107.77117	-544.26339	107.77117
18400.00000	107.73156	-548.03610	107.73156
18450.00000	107.70077	-552.65679	107.70077
18500.00000	107.71665	-555.96637	107.71665
18550.00000	107.70505	-558.94601	107.70505
18600.00000	107.76807	-562.86746	107.76807
18650.00000	107.60698	-566.01218	107.60698
18700.00000	107.53467	-569.76399	107.53467
18750.00000	107.55422	-573.19193	107.55422
18800.00000	107.58835	-575.91539	107.58835
18850.00000	107.41487	-579.44916	107.41487
18900.00000	107.34587	-582.51698	107.34587
18950.00000	107.30990	-586.14807	107.30990
19000.00000	107.07789	-588.80145	107.07789
19050.00000	107.15649	-592.11100	107.15649
19100.00000	107.02943	-594.96941	107.02943
19150.00000	107.08748	-597.78777	107.08748
19200.00000	106.98965	-600.44511	106.98965
19250.00000	106.90154	-604.45428	106.90154
19300.00000	106.76753	-606.65894	106.76753
19350.00000	106.71471	-609.76242	106.71471
19400.00000	106.60612	-612.58519	106.60612
19450.00000	106.62458	-614.92221	106.62458
19500.00000	106.48336	-618.47611	106.48336
19550.00000	106.43397	-621.35512	106.43397
19600.00000	106.42087	-624.74497	106.42087
19650.00000	106.29726	-627.13823	106.29726
19700.00000	106.13975	-630.25023	106.13975
19750.00000	106.03383	-632.48813	106.03383
19800.00000	106.05126	-636.19594	106.05126
19850.00000	105.98493	-638.73386	105.98493
19900.00000	105.84254	-642.40386	105.84254
19950.00000	105.72221	-645.22178	105.72221
20000.00000	105.64090	-648.05317	105.64090
20050.00000	105.54519	-650.95952	105.54519
20100.00000	105.35576	-653.91965	105.35576
20150.00000	105.28791	-656.02090	105.28791
20200.00000	105.13372	-659.61071	105.13372
20250.00000	104.95315	-662.28915	104.95315
20300.00000	104.72768	-665.13720	104.72768
20350.00000	104.62094	-668.07494	104.62094
20400.00000	104.40914	-669.97487	104.40914
20450.00000	104.14683	-672.70559	104.14683
20500.00000	104.00961	-675.58790	104.00961
20550.00000	103.58859	-677.16248	103.58859
20600.00000	103.46693	-679.30630	103.46693
20650.00000	103.25650	-681.31985	103.25650
20700.00000	102.98069	-683.18531	102.98069
20750.00000	102.81458	-684.87655	102.81458
20800.00000	102.56368	-686.16157	102.56368
20850.00000	102.40005	-687.83739	102.40005
20900.00000	102.14594	-689.02763	102.14594
20950.00000	101.95384	-689.72506	101.95384
21000.00000	101.79517	-690.54852	101.79517
21050.00000	101.78691	-691.01242	101.78691
21100.00000	101.66709	-691.60959	101.66709
21150.00000	101.65619	-692.53168	101.65619
21200.00000	101.65085	-693.01464	101.65085
21250.00000	101.63792	-694.87875	101.63792
21300.00000	101.71425	-695.36565	101.71425
21350.00000	101.74481	-696.30463	101.74481
21400.00000	101.75579	-698.05124	101.75579
21450.00000	101.82022	-699.49255	101.82022
21500.00000	101.89029	-701.33961	101.89029
21550.00000	101.84323	-702.66631	101.84323
21600.00000	101.95737	-704.65659	101.95737
21650.00000	101.94866	-706.77710	101.94866
21700.00000	101.95919	-708.27274	101.95919
21750.00000	101.95233	-710.38706	101.95233
21800.00000	101.99201	-712.37060	101.99201
21850.00000	101.90185	-714.14897	101.90185
21900.00000	101.91930	-716.17563	101.91930
21950.00000	101.85882	-717.70902	101.85882
22000.00000	101.91302	-719.64336	101.91302
22050.00000	101.84408	-720.89196	101.84408
22100.00000	101.82142	-723.04849	101.82142
22150.00000	101.77312	-724.44296	101.77312
22200.00000	101.82964	-726.12913	101.82964
22250.00000	101.76507	-727.40788	101.76507
22300.00000	101.66927	-729.40138	101.66927
22350.00000	101.76491	-731.15519	101.76491
22400.00000	101.80185	-732.93834	101.80185
22450.00000	101.74016	-734.49271	101.74016
22500.00000	101.64007	-735.34490	101.64007
22550.00000	101.67169	-737.30720	101.67169
22600.00000	101.66342	-739.69563	101.66342
22650.00000	101.65608	-741.59166	101.65608
22700.00000	101.66619	-742.80664	101.66619
22750.00000	101.62191	-743.27585	101.62191
22800.00000	101.67572	-746.83377	101.67572
