---ACOUSTIC CALIBRATION---
Filename: C:\Data\AZH DATA\AZH82\RightPrimary.calib
Date: 8/27/2019 4:49:12 PM
Format: 4
Probe Tube Correction File: C:\Data\Probe Tube Calibrations\50_ProbeTube.calib
Experiment VIs: 850
EPL_CFTS.exe V12.0.1 (2012)
DAQmx V9.6

Attenuation (dB): 40.000000
Min Freq (Hz): 50.000000
Max Freq (Hz): 49950.000000
Freq Step (Hz): 50.000000
Sample Rate (Hz): 100000.000000
[Smoothing]
Method=None
MA.Iterations=0
MA.Length=0
Loess.Length=0
Loess.Type=Linear
Loess.Robust=FALSE


Freq(Hz)	Mag(dB)	Phase(deg)	Unsmoothed(dB)

50.00000	105.78886	486.09095	105.78886
100.00000	77.99571	324.04626	77.99571
150.00000	70.50949	171.77427	70.50949
200.00000	76.30274	154.26803	76.30274
250.00000	86.35107	134.71719	86.35107
300.00000	78.19217	57.28044	78.19217
350.00000	86.63736	44.70910	86.63736
400.00000	79.93476	36.19880	79.93476
450.00000	85.71401	10.22754	85.71401
500.00000	85.94535	13.59930	85.94535
550.00000	88.19416	17.91070	88.19416
600.00000	92.61745	13.16219	92.61745
650.00000	95.11038	-1.05966	95.11038
700.00000	97.42038	-17.24985	97.42038
750.00000	99.14609	-36.42309	99.14609
800.00000	99.94078	-64.79443	99.94078
850.00000	99.52897	-76.49758	99.52897
900.00000	97.98443	-98.13256	97.98443
950.00000	96.06207	-97.06215	96.06207
1000.00000	94.58516	-95.87021	94.58516
1050.00000	92.34736	-81.42189	92.34736
1100.00000	94.83514	-57.21918	94.83514
1150.00000	97.63915	-55.25544	97.63915
1200.00000	100.31155	-58.01129	100.31155
1250.00000	101.79332	-66.79835	101.79332
1300.00000	103.43637	-72.93523	103.43637
1350.00000	104.63955	-83.00168	104.63955
1400.00000	105.42634	-89.78531	105.42634
1450.00000	106.40379	-95.88184	106.40379
1500.00000	107.18395	-100.82531	107.18395
1550.00000	108.30085	-111.76956	108.30085
1600.00000	109.63095	-121.49195	109.63095
1650.00000	110.68429	-138.66592	110.68429
1700.00000	109.28389	-148.54798	109.28389
1750.00000	109.10107	-153.79508	109.10107
1800.00000	108.69965	-158.89126	108.69965
1850.00000	108.85969	-158.53639	108.85969
1900.00000	109.99575	-162.68667	109.99575
1950.00000	110.76895	-175.58921	110.76895
2000.00000	109.80383	-187.14489	109.80383
2050.00000	108.65028	-181.80818	108.65028
2100.00000	110.31316	-183.54213	110.31316
2150.00000	111.02471	-195.06181	111.02471
2200.00000	110.94658	-204.72469	110.94658
2250.00000	110.34415	-211.64947	110.34415
2300.00000	110.48561	-217.06563	110.48561
2350.00000	110.22654	-223.65560	110.22654
2400.00000	109.99040	-229.22294	109.99040
2450.00000	109.74203	-235.83681	109.74203
2500.00000	109.29056	-240.40147	109.29056
2550.00000	108.89415	-246.58380	108.89415
2600.00000	108.33243	-250.77520	108.33243
2650.00000	107.87543	-254.77944	107.87543
2700.00000	107.16627	-258.93020	107.16627
2750.00000	106.75891	-261.95820	106.75891
2800.00000	106.09684	-264.64264	106.09684
2850.00000	105.50058	-266.50531	105.50058
2900.00000	104.89653	-268.88291	104.89653
2950.00000	104.19435	-269.57554	104.19435
3000.00000	103.51548	-270.99682	103.51548
3050.00000	102.56170	-271.81645	102.56170
3100.00000	101.70745	-271.46194	101.70745
3150.00000	100.32118	-269.17976	100.32118
3200.00000	98.80354	-260.94011	98.80354
3250.00000	98.09186	-247.51639	98.09186
3300.00000	97.88610	-233.32132	97.88610
3350.00000	98.76109	-215.47163	98.76109
3400.00000	101.18047	-201.00668	101.18047
3450.00000	103.89200	-196.44998	103.89200
3500.00000	106.41261	-196.70695	106.41261
3550.00000	108.38307	-201.32684	108.38307
3600.00000	110.03842	-205.69069	110.03842
3650.00000	111.42164	-211.29321	111.42164
3700.00000	112.68369	-216.53026	112.68369
3750.00000	113.94100	-222.17336	113.94100
3800.00000	115.11631	-228.85988	115.11631
3850.00000	116.09050	-235.76602	116.09050
3900.00000	117.02847	-242.51368	117.02847
3950.00000	117.91063	-249.79372	117.91063
4000.00000	118.70751	-257.26105	118.70751
4050.00000	119.50189	-264.60850	119.50189
4100.00000	120.31500	-272.16927	120.31500
4150.00000	121.29850	-280.65517	121.29850
4200.00000	121.98655	-290.74891	121.98655
4250.00000	122.62144	-301.86122	122.62144
4300.00000	123.01966	-313.88384	123.01966
4350.00000	123.08898	-326.08881	123.08898
4400.00000	122.91814	-337.39843	122.91814
4450.00000	122.60126	-347.78102	122.60126
4500.00000	122.20408	-356.89995	122.20408
4550.00000	121.79657	-365.91556	121.79657
4600.00000	121.33717	-374.10969	121.33717
4650.00000	120.93243	-381.96428	120.93243
4700.00000	120.47119	-390.30440	120.47119
4750.00000	119.88534	-398.83740	119.88534
4800.00000	119.10113	-407.65754	119.10113
4850.00000	117.99820	-415.43410	117.99820
4900.00000	116.68551	-421.17238	116.68551
4950.00000	115.31590	-424.47175	115.31590
5000.00000	113.97604	-425.30653	113.97604
5050.00000	112.94929	-424.93141	112.94929
5100.00000	111.79924	-420.70168	111.79924
5150.00000	111.77920	-415.78251	111.77920
5200.00000	111.07675	-410.68920	111.07675
5250.00000	112.70481	-399.55229	112.70481
5300.00000	114.80819	-409.11506	114.80819
5350.00000	114.80989	-421.34269	114.80989
5400.00000	114.24366	-428.33169	114.24366
5450.00000	113.73497	-432.42435	113.73497
5500.00000	113.33485	-435.39469	113.33485
5550.00000	113.01910	-437.86529	113.01910
5600.00000	112.76679	-440.37483	112.76679
5650.00000	112.57241	-442.79256	112.57241
5700.00000	112.36622	-445.24124	112.36622
5750.00000	112.21812	-447.49801	112.21812
5800.00000	112.05215	-449.95360	112.05215
5850.00000	111.91562	-452.31907	111.91562
5900.00000	111.78603	-454.62717	111.78603
5950.00000	111.67565	-456.96301	111.67565
6000.00000	111.57377	-459.17714	111.57377
6050.00000	111.45922	-461.38900	111.45922
6100.00000	111.41232	-463.61464	111.41232
6150.00000	111.35891	-466.08871	111.35891
6200.00000	111.32604	-468.60539	111.32604
6250.00000	111.26938	-471.33700	111.26938
6300.00000	111.20983	-474.08970	111.20983
6350.00000	111.13233	-476.96201	111.13233
6400.00000	111.03092	-479.56937	111.03092
6450.00000	110.94905	-482.37095	110.94905
6500.00000	110.83933	-485.01369	110.83933
6550.00000	110.76923	-487.44405	110.76923
6600.00000	110.67885	-490.17918	110.67885
6650.00000	110.60427	-492.65866	110.60427
6700.00000	110.52060	-495.36573	110.52060
6750.00000	110.43764	-497.92345	110.43764
6800.00000	110.39067	-500.41125	110.39067
6850.00000	110.34057	-502.90927	110.34057
6900.00000	110.28128	-505.66209	110.28128
6950.00000	110.22042	-507.86452	110.22042
7000.00000	110.20019	-510.47906	110.20019
7050.00000	110.18010	-513.21503	110.18010
7100.00000	110.17138	-516.02742	110.17138
7150.00000	110.12959	-518.82495	110.12959
7200.00000	110.09708	-521.73966	110.09708
7250.00000	110.04427	-524.69679	110.04427
7300.00000	110.01000	-527.69486	110.01000
7350.00000	109.95234	-530.68762	109.95234
7400.00000	109.90873	-533.91222	109.90873
7450.00000	109.82453	-537.15064	109.82453
7500.00000	109.81320	-540.47681	109.81320
7550.00000	109.70740	-543.47074	109.70740
7600.00000	109.58722	-546.67296	109.58722
7650.00000	109.46943	-549.67115	109.46943
7700.00000	109.39777	-552.73049	109.39777
7750.00000	109.26289	-555.86582	109.26289
7800.00000	109.14414	-558.92489	109.14414
7850.00000	109.02444	-561.90037	109.02444
7900.00000	108.93199	-564.77146	108.93199
7950.00000	108.80017	-567.78980	108.80017
8000.00000	108.69212	-570.88309	108.69212
8050.00000	108.56531	-574.30796	108.56531
8100.00000	108.41646	-576.81475	108.41646
8150.00000	108.27230	-579.72940	108.27230
8200.00000	108.15664	-582.47198	108.15664
8250.00000	108.00170	-585.69293	108.00170
8300.00000	107.85809	-588.69738	107.85809
8350.00000	107.69966	-591.50374	107.69966
8400.00000	107.53134	-594.67307	107.53134
8450.00000	107.32995	-597.66716	107.32995
8500.00000	107.14555	-600.96608	107.14555
8550.00000	106.99331	-603.95568	106.99331
8600.00000	106.82137	-607.66550	106.82137
8650.00000	106.57141	-610.72133	106.57141
8700.00000	106.39777	-614.68566	106.39777
8750.00000	106.12320	-616.88920	106.12320
8800.00000	105.89228	-620.44443	105.89228
8850.00000	105.56832	-623.58109	105.56832
8900.00000	105.28548	-626.13289	105.28548
8950.00000	105.02017	-629.21542	105.02017
9000.00000	104.60507	-631.88685	104.60507
9050.00000	104.29871	-634.77304	104.29871
9100.00000	103.96619	-637.17134	103.96619
9150.00000	103.67161	-639.83464	103.67161
9200.00000	103.42271	-642.35708	103.42271
9250.00000	103.09274	-644.94905	103.09274
9300.00000	102.88747	-647.30714	102.88747
9350.00000	102.71360	-649.12490	102.71360
9400.00000	102.39241	-650.73071	102.39241
9450.00000	102.18496	-652.13513	102.18496
9500.00000	101.98350	-652.42655	101.98350
9550.00000	101.90677	-653.03327	101.90677
9600.00000	101.84018	-654.93326	101.84018
9650.00000	101.62003	-656.81090	101.62003
9700.00000	101.39980	-657.87261	101.39980
9750.00000	101.26090	-660.49343	101.26090
9800.00000	101.04068	-661.96085	101.04068
9850.00000	100.87730	-663.46635	100.87730
9900.00000	100.59743	-665.65151	100.59743
9950.00000	100.46236	-666.90856	100.46236
10000.00000	100.34404	-669.05037	100.34404
10050.00000	100.22627	-670.53950	100.22627
10100.00000	100.06327	-672.05843	100.06327
10150.00000	99.79912	-674.23959	99.79912
10200.00000	99.62756	-675.93659	99.62756
10250.00000	99.39269	-678.02941	99.39269
10300.00000	99.32065	-680.18507	99.32065
10350.00000	99.14438	-682.28855	99.14438
10400.00000	98.93374	-684.91461	98.93374
10450.00000	98.88197	-687.62267	98.88197
10500.00000	98.81786	-689.81679	98.81786
10550.00000	98.75204	-692.32264	98.75204
10600.00000	98.64666	-694.26448	98.64666
10650.00000	98.51048	-695.87840	98.51048
10700.00000	98.39241	-698.70424	98.39241
10750.00000	98.31552	-700.90003	98.31552
10800.00000	98.08325	-702.91999	98.08325
10850.00000	97.88595	-706.17497	97.88595
10900.00000	97.68215	-708.43248	97.68215
10950.00000	97.51093	-710.56420	97.51093
11000.00000	97.33096	-713.09998	97.33096
11050.00000	97.01321	-715.55934	97.01321
11100.00000	96.75345	-718.41548	96.75345
11150.00000	96.44290	-720.25811	96.44290
11200.00000	96.23319	-722.26239	96.23319
11250.00000	95.90248	-724.72393	95.90248
11300.00000	95.54564	-727.29003	95.54564
11350.00000	95.21208	-729.17931	95.21208
11400.00000	94.80920	-731.51299	94.80920
11450.00000	94.46621	-734.31105	94.46621
11500.00000	94.22140	-735.76772	94.22140
11550.00000	93.80055	-737.26311	93.80055
11600.00000	93.53078	-739.59771	93.53078
11650.00000	93.20203	-740.23231	93.20203
11700.00000	92.87756	-741.49788	92.87756
11750.00000	92.58489	-743.23985	92.58489
11800.00000	92.19737	-745.40670	92.19737
11850.00000	91.82804	-745.52352	91.82804
11900.00000	91.26010	-747.33346	91.26010
11950.00000	90.84968	-747.62004	90.84968
12000.00000	90.43897	-747.58250	90.43897
12050.00000	90.04512	-747.47793	90.04512
12100.00000	89.67556	-748.26436	89.67556
12150.00000	89.38189	-749.04067	89.38189
12200.00000	89.10529	-749.14412	89.10529
12250.00000	88.80140	-748.79502	88.80140
12300.00000	89.53993	-748.85718	89.53993
12350.00000	88.14592	-748.40470	88.14592
12400.00000	87.87047	-746.49780	87.87047
12450.00000	87.73972	-745.81983	87.73972
12500.00000	87.46402	-746.03314	87.46402
12550.00000	87.22769	-745.35541	87.22769
12600.00000	87.14467	-745.04162	87.14467
12650.00000	87.01595	-744.05787	87.01595
12700.00000	86.94951	-744.17616	86.94951
12750.00000	86.86501	-744.01536	86.86501
12800.00000	86.70311	-742.62330	86.70311
12850.00000	86.47469	-742.18864	86.47469
12900.00000	86.46389	-741.80393	86.46389
12950.00000	86.39579	-742.73663	86.39579
13000.00000	86.27021	-742.69028	86.27021
13050.00000	86.31812	-741.77662	86.31812
13100.00000	86.23987	-742.11508	86.23987
13150.00000	86.30146	-742.18104	86.30146
13200.00000	86.33354	-739.90358	86.33354
13250.00000	86.32158	-740.32399	86.32158
13300.00000	86.25342	-738.16144	86.25342
13350.00000	86.26092	-739.03840	86.26092
13400.00000	86.35821	-738.49377	86.35821
13450.00000	86.13467	-737.26444	86.13467
13500.00000	86.36495	-737.84248	86.36495
13550.00000	86.32355	-736.23398	86.32355
13600.00000	86.34876	-734.97116	86.34876
13650.00000	86.54119	-734.99826	86.54119
13700.00000	86.47277	-735.27611	86.47277
13750.00000	86.54052	-734.85697	86.54052
13800.00000	86.55363	-736.25617	86.55363
13850.00000	86.68085	-737.64065	86.68085
13900.00000	86.76697	-736.96172	86.76697
13950.00000	87.02579	-736.92013	87.02579
14000.00000	87.45053	-735.70982	87.45053
14050.00000	87.63694	-736.90636	87.63694
14100.00000	87.36276	-736.63757	87.36276
14150.00000	87.77358	-736.74972	87.77358
14200.00000	88.11463	-737.36151	88.11463
14250.00000	88.59828	-736.07689	88.59828
14300.00000	88.70489	-737.09201	88.70489
14350.00000	88.77875	-736.41959	88.77875
14400.00000	88.73018	-737.30314	88.73018
14450.00000	88.76532	-737.00201	88.76532
14500.00000	88.81073	-738.93153	88.81073
14550.00000	89.13754	-739.06272	89.13754
14600.00000	89.08292	-741.46703	89.08292
14650.00000	89.50330	-739.58246	89.50330
14700.00000	89.26120	-743.59542	89.26120
14750.00000	89.76607	-743.79235	89.76607
14800.00000	89.79789	-743.57215	89.79789
14850.00000	90.12631	-743.61215	90.12631
14900.00000	90.34110	-744.49144	90.34110
14950.00000	90.58263	-745.15642	90.58263
15000.00000	90.83699	-745.69492	90.83699
15050.00000	90.83656	-744.36811	90.83656
15100.00000	91.11473	-744.49235	91.11473
15150.00000	91.31197	-745.60569	91.31197
15200.00000	91.47268	-744.83390	91.47268
15250.00000	91.66575	-746.12848	91.66575
15300.00000	91.98511	-746.45059	91.98511
15350.00000	92.36150	-747.97465	92.36150
15400.00000	92.58160	-746.99291	92.58160
15450.00000	92.92270	-748.11822	92.92270
15500.00000	93.37371	-749.07461	93.37371
15550.00000	93.81719	-750.36121	93.81719
15600.00000	94.17157	-751.08679	94.17157
15650.00000	94.70696	-751.04620	94.70696
15700.00000	94.94873	-753.56122	94.94873
15750.00000	95.49204	-755.25169	95.49204
15800.00000	95.98230	-756.40532	95.98230
15850.00000	96.40248	-758.82397	96.40248
15900.00000	96.71464	-762.83869	96.71464
15950.00000	97.16564	-764.52926	97.16564
16000.00000	97.49591	-767.61358	97.49591
16050.00000	97.84900	-770.16742	97.84900
16100.00000	97.95898	-773.54015	97.95898
16150.00000	98.14403	-776.93164	98.14403
16200.00000	98.40224	-780.58107	98.40224
16250.00000	98.58418	-783.18158	98.58418
16300.00000	98.91592	-786.26462	98.91592
16350.00000	99.01373	-788.71103	99.01373
16400.00000	99.09168	-791.44974	99.09168
16450.00000	99.20005	-793.87190	99.20005
16500.00000	99.44450	-796.02116	99.44450
16550.00000	99.50035	-799.95025	99.50035
16600.00000	99.65218	-802.10655	99.65218
16650.00000	99.73527	-804.58604	99.73527
16700.00000	99.86325	-806.90601	99.86325
16750.00000	99.90485	-809.89750	99.90485
16800.00000	100.03430	-812.50300	100.03430
16850.00000	100.27681	-815.18141	100.27681
16900.00000	100.38436	-817.40889	100.38436
16950.00000	100.52062	-820.26951	100.52062
17000.00000	100.49055	-822.98598	100.49055
17050.00000	100.65839	-824.89735	100.65839
17100.00000	100.65694	-827.32702	100.65694
17150.00000	100.93875	-829.74390	100.93875
17200.00000	101.03653	-832.12225	101.03653
17250.00000	101.06988	-835.11568	101.06988
17300.00000	101.22323	-837.62900	101.22323
17350.00000	101.16915	-839.77210	101.16915
17400.00000	101.37246	-842.26827	101.37246
17450.00000	101.40367	-845.25469	101.40367
17500.00000	101.49911	-847.49855	101.49911
17550.00000	101.59023	-850.02888	101.59023
17600.00000	101.74388	-851.76585	101.74388
17650.00000	101.78496	-855.41861	101.78496
17700.00000	101.78804	-857.22706	101.78804
17750.00000	102.03843	-859.69511	102.03843
17800.00000	102.01437	-862.93348	102.01437
17850.00000	102.09424	-864.76853	102.09424
17900.00000	102.14954	-867.61542	102.14954
17950.00000	102.33119	-870.40005	102.33119
18000.00000	102.38193	-873.49104	102.38193
18050.00000	102.60375	-875.52163	102.60375
18100.00000	102.61769	-878.43128	102.61769
18150.00000	102.69093	-880.78844	102.69093
18200.00000	102.67917	-883.56791	102.67917
18250.00000	102.78254	-885.51654	102.78254
18300.00000	102.97184	-887.81610	102.97184
18350.00000	103.04482	-890.73389	103.04482
18400.00000	103.07503	-893.73597	103.07503
18450.00000	103.11870	-897.46270	103.11870
18500.00000	103.18913	-900.03584	103.18913
18550.00000	103.25514	-902.10651	103.25514
18600.00000	103.45677	-905.37021	103.45677
18650.00000	103.37066	-907.85971	103.37066
18700.00000	103.42623	-911.07193	103.42623
18750.00000	103.53320	-913.64413	103.53320
18800.00000	103.72752	-915.94136	103.72752
18850.00000	103.65838	-919.00662	103.65838
18900.00000	103.75722	-921.27517	103.75722
18950.00000	103.78819	-925.04553	103.78819
19000.00000	103.73605	-927.28695	103.73605
19050.00000	103.90169	-930.45153	103.90169
19100.00000	103.90393	-933.13530	103.90393
19150.00000	104.08437	-935.86979	104.08437
19200.00000	104.08936	-938.32740	104.08936
19250.00000	104.12435	-942.50770	104.12435
19300.00000	104.09188	-944.68410	104.09188
19350.00000	104.15046	-947.73791	104.15046
19400.00000	104.14261	-950.39753	104.14261
19450.00000	104.26308	-952.90045	104.26308
19500.00000	104.19309	-956.33534	104.19309
19550.00000	104.26841	-959.43725	104.26841
19600.00000	104.35903	-962.88892	104.35903
19650.00000	104.32258	-965.42485	104.32258
19700.00000	104.23335	-968.62530	104.23335
19750.00000	104.26396	-970.95170	104.26396
19800.00000	104.32810	-974.98917	104.32810
19850.00000	104.34328	-977.64647	104.34328
19900.00000	104.28150	-981.51077	104.28150
19950.00000	104.24896	-984.46898	104.24896
20000.00000	104.22694	-987.55753	104.22694
20050.00000	104.19681	-990.69100	104.19681
20100.00000	104.06491	-994.05693	104.06491
20150.00000	104.05741	-996.13597	104.05741
20200.00000	103.94377	-999.92408	103.94377
20250.00000	103.82235	-1002.70267	103.82235
20300.00000	103.64388	-1005.70364	103.64388
20350.00000	103.58844	-1008.85438	103.58844
20400.00000	103.41750	-1010.88805	103.41750
20450.00000	103.18964	-1013.72565	103.18964
20500.00000	103.10305	-1016.60153	103.10305
20550.00000	102.72341	-1018.27035	102.72341
20600.00000	102.66577	-1020.33691	102.66577
20650.00000	102.49294	-1022.49366	102.49294
20700.00000	102.26692	-1024.25706	102.26692
20750.00000	102.17325	-1025.91125	102.17325
20800.00000	101.96492	-1027.05109	101.96492
20850.00000	101.89548	-1028.56835	101.89548
20900.00000	101.72786	-1029.77255	101.72786
20950.00000	101.62309	-1030.35587	101.62309
21000.00000	101.58339	-1031.16053	101.58339
21050.00000	101.67754	-1031.66673	101.67754
21100.00000	101.67712	-1032.30616	101.67712
21150.00000	101.83190	-1033.57551	101.83190
21200.00000	101.97734	-1034.36150	101.97734
21250.00000	102.10417	-1036.79085	102.10417
21300.00000	102.30101	-1037.84461	102.30101
21350.00000	102.43938	-1039.54526	102.43938
21400.00000	102.59160	-1042.00851	102.59160
21450.00000	102.76852	-1044.34248	102.76852
21500.00000	102.89316	-1047.15357	102.89316
21550.00000	102.91799	-1049.50770	102.91799
21600.00000	103.08067	-1052.40833	103.08067
21650.00000	103.09867	-1055.48241	103.09867
21700.00000	103.11191	-1057.95437	103.11191
21750.00000	103.14006	-1060.93623	103.14006
21800.00000	103.12670	-1063.75206	103.12670
21850.00000	103.03403	-1066.44384	103.03403
21900.00000	103.01922	-1069.21629	103.01922
21950.00000	102.99757	-1071.44071	102.99757
22000.00000	102.98399	-1073.89877	102.98399
22050.00000	102.91088	-1076.04303	102.91088
22100.00000	102.82647	-1078.52871	102.82647
22150.00000	102.76724	-1080.74065	102.76724
22200.00000	102.81008	-1083.05560	102.81008
22250.00000	102.69595	-1084.71052	102.69595
22300.00000	102.53239	-1087.26672	102.53239
22350.00000	102.62793	-1089.62696	102.62793
22400.00000	102.61844	-1091.78019	102.61844
22450.00000	102.49660	-1093.83012	102.49660
22500.00000	102.42284	-1095.27978	102.42284
22550.00000	102.40650	-1097.81194	102.40650
22600.00000	102.35784	-1100.89629	102.35784
22650.00000	102.32286	-1102.97374	102.32286
