---ACOUSTIC CALIBRATION---
Filename: C:\Data\AZH DATA\AZH82\RightPrimary.calib
Date: 8/27/2019 4:50:38 PM
Format: 4
Probe Tube Correction File: C:\Data\Probe Tube Calibrations\50_ProbeTube.calib
Experiment VIs: 850
EPL_CFTS.exe V12.0.1 (2012)
DAQmx V9.6

Attenuation (dB): 40.000000
Min Freq (Hz): 50.000000
Max Freq (Hz): 49950.000000
Freq Step (Hz): 50.000000
Sample Rate (Hz): 100000.000000
[Smoothing]
Method=None
MA.Iterations=0
MA.Length=0
Loess.Length=0
Loess.Type=Linear
Loess.Robust=FALSE


Freq(Hz)	Mag(dB)	Phase(deg)	Unsmoothed(dB)

50.00000	104.88079	372.14023	104.88079
100.00000	82.96481	451.51281	82.96481
150.00000	79.79843	505.45083	79.79843
200.00000	85.55723	451.41402	85.55723
250.00000	89.92228	459.76371	89.92228
300.00000	89.70711	414.33319	89.70711
350.00000	85.28568	385.55647	85.28568
400.00000	87.10006	393.12063	87.10006
450.00000	88.83706	369.85493	88.83706
500.00000	90.31987	378.41717	90.31987
550.00000	92.57142	364.60667	92.57142
600.00000	95.51509	364.61163	95.51509
650.00000	97.95802	352.85961	97.95802
700.00000	99.91721	332.86714	99.91721
750.00000	102.04801	316.54633	102.04801
800.00000	102.76012	290.53345	102.76012
850.00000	102.29931	276.07396	102.29931
900.00000	100.93250	256.78508	100.93250
950.00000	98.68872	256.23481	98.68872
1000.00000	97.34413	257.51838	97.34413
1050.00000	95.09389	273.92522	95.09389
1100.00000	96.99210	294.06347	96.99210
1150.00000	99.78488	299.82924	99.78488
1200.00000	102.65405	298.42593	102.65405
1250.00000	104.23478	289.86380	104.23478
1300.00000	105.91256	284.56064	105.91256
1350.00000	107.17653	274.42642	107.17653
1400.00000	108.10282	268.04678	108.10282
1450.00000	108.98148	260.19170	108.98148
1500.00000	109.79175	251.13449	109.79175
1550.00000	110.86940	245.44521	110.86940
1600.00000	112.20253	235.88749	112.20253
1650.00000	113.27793	218.77110	113.27793
1700.00000	112.00425	208.52373	112.00425
1750.00000	111.77532	203.01263	111.77532
1800.00000	111.49850	197.81645	111.49850
1850.00000	111.69087	197.52975	111.69087
1900.00000	112.83084	193.24442	112.83084
1950.00000	113.49668	179.99763	113.49668
2000.00000	112.55419	168.29892	112.55419
2050.00000	111.27132	172.64203	111.27132
2100.00000	113.21217	170.84191	113.21217
2150.00000	113.69513	160.59762	113.69513
2200.00000	113.61112	150.71709	113.61112
2250.00000	113.01779	143.55650	113.01779
2300.00000	113.12313	138.17218	113.12313
2350.00000	112.83491	131.60544	112.83491
2400.00000	112.59251	126.23416	112.59251
2450.00000	112.30034	119.39938	112.30034
2500.00000	111.89347	114.67191	111.89347
2550.00000	111.49207	109.01256	111.49207
2600.00000	110.93927	104.70980	110.93927
2650.00000	110.45853	100.60539	110.45853
2700.00000	110.05364	97.24588	110.05364
2750.00000	109.44959	93.89219	109.44959
2800.00000	108.83576	91.30720	108.83576
2850.00000	108.26490	89.06567	108.26490
2900.00000	107.62591	86.91149	107.62591
2950.00000	106.96084	85.73326	106.96084
3000.00000	106.38415	84.70087	106.38415
3050.00000	105.58570	84.22178	105.58570
3100.00000	104.84621	84.45410	104.84621
3150.00000	103.90029	84.04781	103.90029
3200.00000	102.66153	89.43731	102.66153
3250.00000	101.68463	97.93917	101.68463
3300.00000	100.93047	109.64157	100.93047
3350.00000	100.90906	124.79095	100.90906
3400.00000	102.64193	142.83346	102.64193
3450.00000	105.08759	151.65920	105.08759
3500.00000	107.68813	153.49292	107.68813
3550.00000	109.72695	150.72166	109.72695
3600.00000	111.52285	147.53283	111.52285
3650.00000	113.01739	142.07058	113.01739
3700.00000	114.33535	137.49702	114.33535
3750.00000	115.63899	132.12949	115.63899
3800.00000	116.86771	125.83912	116.86771
3850.00000	117.89773	119.01084	117.89773
3900.00000	118.88606	112.37374	118.88606
3950.00000	119.83137	105.16857	119.83137
4000.00000	120.66297	97.64479	120.66297
4050.00000	121.45439	90.30977	121.45439
4100.00000	122.27953	82.86950	122.27953
4150.00000	123.28431	74.50737	123.28431
4200.00000	124.02508	64.63109	124.02508
4250.00000	124.72713	53.57697	124.72713
4300.00000	125.19881	41.38110	125.19881
4350.00000	125.33622	28.81501	125.33622
4400.00000	125.20908	16.97357	125.20908
4450.00000	124.89722	 6.07081	124.89722
4500.00000	124.47755	-3.70102	124.47755
4550.00000	124.03358	-13.08158	124.03358
4600.00000	123.52777	-21.55757	123.52777
4650.00000	123.04971	-29.69853	123.04971
4700.00000	122.52729	-38.03808	122.52729
4750.00000	121.88153	-46.60069	121.88153
4800.00000	121.05696	-55.21012	121.05696
4850.00000	119.94189	-62.95933	119.94189
4900.00000	118.60799	-68.76093	118.60799
4950.00000	117.22283	-72.00883	117.22283
5000.00000	115.90336	-72.83953	115.90336
5050.00000	114.80627	-72.52197	114.80627
5100.00000	113.58996	-68.54574	113.58996
5150.00000	113.50152	-63.39793	113.50152
5200.00000	112.65856	-58.87662	112.65856
5250.00000	113.89298	-44.97610	113.89298
5300.00000	116.48870	-51.77018	116.48870
5350.00000	116.83943	-65.19344	116.83943
5400.00000	116.33015	-73.38454	116.33015
5450.00000	115.78440	-78.08317	115.78440
5500.00000	115.35393	-81.55458	115.35393
5550.00000	115.02877	-84.20692	115.02877
5600.00000	114.77934	-86.73540	114.77934
5650.00000	114.56631	-89.11978	114.56631
5700.00000	114.36664	-91.60003	114.36664
5750.00000	114.21233	-94.09551	114.21233
5800.00000	114.05657	-96.55911	114.05657
5850.00000	113.90765	-98.96959	113.90765
5900.00000	113.79213	-101.57038	113.79213
5950.00000	113.68094	-103.88707	113.68094
6000.00000	113.56849	-106.17573	113.56849
6050.00000	113.45946	-108.54952	113.45946
6100.00000	113.40156	-110.78634	113.40156
6150.00000	113.33426	-113.33056	113.33426
6200.00000	113.27610	-115.69685	113.27610
6250.00000	113.23215	-118.47550	113.23215
6300.00000	113.20427	-121.06185	113.20427
6350.00000	113.12542	-123.98847	113.12542
6400.00000	113.05944	-126.74917	113.05944
6450.00000	113.00340	-129.73754	113.00340
6500.00000	112.92121	-132.46299	112.92121
6550.00000	112.83794	-135.14901	112.83794
6600.00000	112.76911	-137.91256	112.76911
6650.00000	112.69659	-140.60985	112.69659
6700.00000	112.66186	-143.52078	112.66186
6750.00000	112.59256	-146.23787	112.59256
6800.00000	112.56800	-149.02138	112.56800
6850.00000	112.52717	-151.67134	112.52717
6900.00000	112.50842	-154.29189	112.50842
6950.00000	112.44857	-157.25121	112.44857
7000.00000	112.44329	-160.18857	112.44329
7050.00000	112.42276	-163.21738	112.42276
7100.00000	112.41417	-166.45285	112.41417
7150.00000	112.38392	-169.50049	112.38392
7200.00000	112.34401	-172.93119	112.34401
7250.00000	112.29726	-176.38715	112.29726
7300.00000	112.28453	-179.75127	112.28453
7350.00000	112.21179	-183.20244	112.21179
7400.00000	112.16505	-186.95082	112.16505
7450.00000	112.08202	-190.75727	112.08202
7500.00000	111.97356	-194.66946	111.97356
7550.00000	111.89814	-198.20755	111.89814
7600.00000	111.74268	-202.16561	111.74268
7650.00000	111.61693	-206.03108	111.61693
7700.00000	111.48686	-209.82871	111.48686
7750.00000	111.28264	-213.69555	111.28264
7800.00000	111.08506	-217.39017	111.08506
7850.00000	110.86913	-221.21420	110.86913
7900.00000	110.63571	-224.60449	110.63571
7950.00000	110.41593	-228.47323	110.41593
8000.00000	110.14171	-232.16199	110.14171
8050.00000	109.88304	-235.99601	109.88304
8100.00000	109.64045	-238.64147	109.64045
8150.00000	109.25474	-242.05592	109.25474
8200.00000	108.95960	-245.07476	108.95960
8250.00000	108.59193	-248.37414	108.59193
8300.00000	108.23793	-251.37887	108.23793
8350.00000	107.86830	-254.01367	107.86830
8400.00000	107.52306	-257.14886	107.52306
8450.00000	107.10121	-259.83166	107.10121
8500.00000	106.74956	-262.77677	106.74956
8550.00000	106.41200	-265.64087	106.41200
8600.00000	106.06433	-268.59013	106.06433
8650.00000	105.72452	-270.92791	105.72452
8700.00000	105.43615	-273.95577	105.43615
8750.00000	105.06705	-274.90486	105.06705
8800.00000	104.76461	-277.48719	104.76461
8850.00000	104.39964	-278.97142	104.39964
8900.00000	104.04558	-280.38975	104.04558
8950.00000	103.67036	-282.05494	103.67036
9000.00000	103.19735	-283.85693	103.19735
9050.00000	102.81647	-285.93046	102.81647
9100.00000	102.42054	-287.39602	102.42054
9150.00000	102.08459	-289.47614	102.08459
9200.00000	101.80085	-291.86605	101.80085
9250.00000	101.48759	-293.66746	101.48759
9300.00000	101.29177	-296.07404	101.29177
9350.00000	101.19920	-297.48000	101.19920
9400.00000	100.93018	-298.20921	100.93018
9450.00000	100.82791	-298.88017	100.82791
9500.00000	100.65427	-298.35902	100.65427
9550.00000	100.61275	-297.91501	100.61275
9600.00000	100.55924	-298.98427	100.55924
9650.00000	100.31926	-300.30595	100.31926
9700.00000	100.06830	-301.00640	100.06830
9750.00000	99.84979	-303.10314	99.84979
9800.00000	99.58901	-304.54189	99.58901
9850.00000	99.48159	-306.15431	99.48159
9900.00000	99.22939	-308.03666	99.22939
9950.00000	99.19075	-309.60370	99.19075
10000.00000	99.17869	-311.43298	99.17869
10050.00000	99.12547	-312.52064	99.12547
10100.00000	99.01193	-313.43594	99.01193
10150.00000	98.75859	-315.08101	98.75859
10200.00000	98.58313	-316.30464	98.58313
10250.00000	98.33892	-318.07472	98.33892
10300.00000	98.18531	-320.21070	98.18531
10350.00000	98.00729	-322.30289	98.00729
10400.00000	97.77151	-325.21619	97.77151
10450.00000	97.73474	-328.46858	97.73474
10500.00000	97.66941	-330.79081	97.66941
10550.00000	97.65182	-333.01139	97.65182
10600.00000	97.56124	-334.68827	97.56124
10650.00000	97.43172	-336.02625	97.43172
10700.00000	97.27873	-338.66467	97.27873
10750.00000	97.09839	-340.52042	97.09839
10800.00000	96.78632	-342.50011	96.78632
10850.00000	96.51546	-345.53215	96.51546
10900.00000	96.26062	-347.95173	96.26062
10950.00000	96.00462	-349.76113	96.00462
11000.00000	95.75501	-352.44595	95.75501
11050.00000	95.38429	-354.69991	95.38429
11100.00000	95.11091	-357.03030	95.11091
11150.00000	94.69686	-358.30856	94.69686
11200.00000	94.41308	-359.76503	94.41308
11250.00000	93.96246	-361.57459	93.96246
11300.00000	93.43181	-363.55242	93.43181
11350.00000	92.99048	-364.58513	92.99048
11400.00000	92.37046	-366.37195	92.37046
11450.00000	92.04069	-367.70272	92.04069
11500.00000	91.73656	-367.83117	91.73656
11550.00000	91.19638	-367.91882	91.19638
11600.00000	90.97165	-368.98592	90.97165
11650.00000	90.56510	-368.36729	90.56510
11700.00000	90.21414	-368.30011	90.21414
11750.00000	89.93117	-367.55589	89.93117
11800.00000	89.64626	-367.18876	89.64626
11850.00000	89.36777	-365.88728	89.36777
11900.00000	89.01847	-365.29702	89.01847
11950.00000	88.82900	-364.30570	88.82900
12000.00000	88.58569	-362.40866	88.58569
12050.00000	88.37912	-362.11499	88.37912
12100.00000	88.25431	-362.06018	88.25431
12150.00000	88.08561	-362.04991	88.08561
12200.00000	88.03317	-362.48072	88.03317
12250.00000	88.01101	-361.18328	88.01101
12300.00000	89.45790	-360.72259	89.45790
12350.00000	88.21696	-360.12462	88.21696
12400.00000	88.07313	-358.35927	88.07313
12450.00000	88.08486	-357.82284	88.08486
12500.00000	88.13492	-357.47672	88.13492
12550.00000	87.96210	-357.28206	87.96210
12600.00000	87.92346	-358.85828	87.92346
12650.00000	88.14104	-359.36314	88.14104
12700.00000	88.04318	-358.81229	88.04318
12750.00000	88.23502	-359.86528	88.23502
12800.00000	88.18535	-359.96694	88.18535
12850.00000	87.96540	-359.70834	87.96540
12900.00000	87.95643	-360.11601	87.95643
12950.00000	88.01536	-360.52160	88.01536
13000.00000	87.84688	-361.27921	87.84688
13050.00000	87.95751	-361.17387	87.95751
13100.00000	87.80997	-362.09702	87.80997
13150.00000	87.98286	-362.29749	87.98286
13200.00000	87.85065	-362.58249	87.85065
13250.00000	87.93356	-362.56007	87.93356
13300.00000	87.79849	-360.26729	87.79849
13350.00000	87.80178	-360.37618	87.80178
13400.00000	87.87752	-361.34476	87.87752
13450.00000	87.65543	-360.37330	87.65543
13500.00000	87.71074	-358.78391	87.71074
13550.00000	87.78195	-360.25910	87.78195
13600.00000	87.91565	-358.80355	87.91565
13650.00000	87.95812	-357.02273	87.95812
13700.00000	87.64309	-357.86086	87.64309
13750.00000	87.71720	-358.44268	87.71720
13800.00000	87.69045	-359.35093	87.69045
13850.00000	87.72222	-360.19648	87.72222
13900.00000	87.82224	-359.68318	87.82224
13950.00000	88.13664	-358.56029	88.13664
14000.00000	88.48582	-356.05905	88.48582
14050.00000	88.59829	-355.03699	88.59829
14100.00000	88.50554	-354.08294	88.50554
14150.00000	88.67575	-354.14672	88.67575
14200.00000	88.89639	-354.38719	88.89639
14250.00000	89.43836	-352.74434	89.43836
14300.00000	89.76490	-352.59229	89.76490
14350.00000	90.06709	-350.09961	90.06709
14400.00000	90.03263	-349.22002	90.03263
14450.00000	90.15568	-348.03799	90.15568
14500.00000	90.40372	-348.75399	90.40372
14550.00000	90.77571	-347.78538	90.77571
14600.00000	90.87739	-349.17769	90.87739
14650.00000	91.59560	-347.70253	91.59560
14700.00000	91.76812	-350.60661	91.76812
14750.00000	92.37235	-350.33412	92.37235
14800.00000	92.70628	-349.71763	92.70628
14850.00000	93.24829	-348.87331	93.24829
14900.00000	93.73174	-349.52248	93.73174
14950.00000	94.18329	-350.73122	94.18329
15000.00000	94.69683	-352.16027	94.69683
15050.00000	95.06579	-351.12565	95.06579
15100.00000	95.53372	-351.73139	95.53372
15150.00000	96.28226	-353.43993	96.28226
15200.00000	96.60434	-353.07630	96.60434
15250.00000	96.95074	-355.56459	96.95074
15300.00000	97.55945	-357.89337	97.55945
15350.00000	98.10590	-360.45720	98.10590
15400.00000	98.56117	-361.87560	98.56117
15450.00000	99.05543	-364.24269	99.05543
15500.00000	99.60996	-366.76314	99.60996
15550.00000	100.12561	-369.45394	100.12561
15600.00000	100.55207	-372.82362	100.55207
15650.00000	101.07188	-374.13624	101.07188
15700.00000	101.30289	-378.68851	101.30289
15750.00000	101.78369	-381.55370	101.78369
15800.00000	102.20350	-383.81311	102.20350
15850.00000	102.48192	-386.89853	102.48192
15900.00000	102.79898	-391.01253	102.79898
15950.00000	103.02883	-394.07596	103.02883
16000.00000	103.31138	-397.00872	103.31138
16050.00000	103.68962	-400.39530	103.68962
16100.00000	103.77085	-403.88034	103.77085
16150.00000	103.96589	-407.07862	103.96589
16200.00000	104.18543	-410.98839	104.18543
16250.00000	104.45773	-413.87080	104.45773
16300.00000	104.81547	-417.12939	104.81547
16350.00000	104.94140	-420.35328	104.94140
16400.00000	105.15577	-423.30276	105.15577
16450.00000	105.32322	-426.15138	105.32322
16500.00000	105.39881	-429.75608	105.39881
16550.00000	105.72032	-433.35627	105.72032
16600.00000	105.90498	-436.13741	105.90498
16650.00000	106.03969	-439.40433	106.03969
16700.00000	106.24184	-442.22973	106.24184
16750.00000	106.29612	-445.88054	106.29612
16800.00000	106.48323	-449.19802	106.48323
16850.00000	106.68440	-452.39772	106.68440
16900.00000	106.83653	-455.87902	106.83653
16950.00000	106.97033	-459.20435	106.97033
17000.00000	106.95912	-462.43900	106.95912
17050.00000	107.12388	-464.95691	107.12388
17100.00000	107.18077	-466.85529	107.18077
17150.00000	107.40227	-471.11520	107.40227
17200.00000	107.47786	-474.15098	107.47786
17250.00000	107.57540	-477.79960	107.57540
17300.00000	107.73076	-480.80943	107.73076
17350.00000	107.72376	-483.63798	107.72376
17400.00000	107.91894	-487.00544	107.91894
17450.00000	107.93704	-490.60057	107.93704
17500.00000	108.09161	-493.68082	108.09161
17550.00000	108.17393	-496.86030	108.17393
17600.00000	108.35126	-499.72232	108.35126
17650.00000	108.42682	-503.73569	108.42682
17700.00000	108.54796	-506.89089	108.54796
17750.00000	108.67958	-510.05065	108.67958
17800.00000	108.64072	-514.06859	108.64072
17850.00000	108.72580	-516.92130	108.72580
17900.00000	108.75488	-520.58016	108.75488
17950.00000	108.88920	-524.26051	108.88920
18000.00000	108.88478	-528.25877	108.88478
18050.00000	109.07788	-531.34125	109.07788
18100.00000	109.03233	-535.27965	109.03233
18150.00000	109.03466	-538.42101	109.03466
18200.00000	108.99259	-542.44520	108.99259
18250.00000	109.06247	-545.34546	109.06247
18300.00000	109.17983	-548.96024	109.17983
18350.00000	109.09455	-552.38191	109.09455
18400.00000	109.01092	-556.19182	109.01092
18450.00000	108.94836	-560.92396	108.94836
18500.00000	108.94420	-564.18571	108.94420
18550.00000	108.86793	-567.10943	108.86793
18600.00000	108.91646	-571.10692	108.91646
18650.00000	108.70761	-574.21185	108.70761
18700.00000	108.62379	-578.19658	108.62379
18750.00000	108.59315	-581.29725	108.59315
18800.00000	108.59174	-584.09164	108.59174
18850.00000	108.40174	-587.85845	108.40174
18900.00000	108.29630	-590.29567	108.29630
18950.00000	108.18359	-594.46954	108.18359
19000.00000	107.94298	-597.06271	107.94298
19050.00000	107.97886	-600.21063	107.97886
19100.00000	107.80438	-603.14312	107.80438
19150.00000	107.83008	-605.90207	107.83008
19200.00000	107.69424	-608.42124	107.69424
19250.00000	107.57466	-612.34471	107.57466
19300.00000	107.41195	-614.45250	107.41195
19350.00000	107.32985	-617.55452	107.32985
19400.00000	107.19878	-620.07177	107.19878
19450.00000	107.18918	-622.32631	107.18918
19500.00000	106.95902	-625.69792	106.95902
19550.00000	106.93607	-628.37923	106.93607
19600.00000	106.93389	-631.81388	106.93389
19650.00000	106.79242	-633.93451	106.79242
19700.00000	106.59416	-636.89921	106.59416
19750.00000	106.52442	-639.06635	106.52442
19800.00000	106.51282	-642.53503	106.51282
19850.00000	106.42164	-645.13202	106.42164
19900.00000	106.28804	-648.59715	106.28804
19950.00000	106.17729	-651.32188	106.17729
20000.00000	106.07687	-654.09672	106.07687
20050.00000	105.96717	-656.97198	105.96717
20100.00000	105.80892	-660.03632	105.80892
20150.00000	105.72228	-661.80379	105.72228
20200.00000	105.55246	-665.48780	105.55246
20250.00000	105.36908	-668.10119	105.36908
20300.00000	105.13124	-670.98603	105.13124
20350.00000	105.05480	-673.94488	105.05480
20400.00000	104.80609	-675.99688	104.80609
20450.00000	104.56516	-678.76395	104.56516
20500.00000	104.42381	-681.62339	104.42381
20550.00000	103.98860	-683.40104	103.98860
20600.00000	103.84505	-685.52057	103.84505
20650.00000	103.60528	-687.69629	103.60528
20700.00000	103.27154	-689.73687	103.27154
20750.00000	103.11993	-691.54254	103.11993
20800.00000	102.82904	-692.91574	102.82904
20850.00000	102.64463	-694.53112	102.64463
20900.00000	102.34054	-695.94196	102.34054
20950.00000	102.10314	-696.65003	102.10314
21000.00000	101.88692	-697.51087	101.88692
21050.00000	101.83997	-697.94285	101.83997
21100.00000	101.64154	-698.28318	101.64154
21150.00000	101.58802	-699.25409	101.58802
21200.00000	101.54759	-699.38625	101.54759
21250.00000	101.48009	-701.25631	101.48009
21300.00000	101.52137	-701.10810	101.52137
21350.00000	101.48349	-702.05637	101.48349
21400.00000	101.48393	-703.43725	101.48393
21450.00000	101.52693	-704.59808	101.52693
21500.00000	101.56249	-706.08526	101.56249
21550.00000	101.49810	-707.01450	101.49810
21600.00000	101.58083	-708.83793	101.58083
21650.00000	101.59507	-710.37093	101.59507
21700.00000	101.59303	-711.95643	101.59303
21750.00000	101.62019	-713.40753	101.62019
21800.00000	101.60369	-715.19235	101.60369
21850.00000	101.55214	-716.94159	101.55214
21900.00000	101.55797	-717.94301	101.55797
21950.00000	101.53935	-719.91338	101.53935
22000.00000	101.53914	-721.28074	101.53914
22050.00000	101.53579	-722.82740	101.53579
22100.00000	101.49717	-724.15634	101.49717
22150.00000	101.47654	-725.94653	101.47654
22200.00000	101.58562	-727.29404	101.58562
22250.00000	101.48780	-728.89572	101.48780
22300.00000	101.41817	-730.23203	101.41817
22350.00000	101.52049	-731.77932	101.52049
22400.00000	101.60815	-733.63973	101.60815
22450.00000	101.48762	-735.21945	101.48762
22500.00000	101.49158	-735.50853	101.49158
22550.00000	101.49646	-737.41801	101.49646
22600.00000	101.47514	-740.04222	101.47514
22650.00000	101.49412	-741.17346	101.49412
22700.00000	101.48666	-743.29363	101.48666
22750.00000	101.50356	-742.86505	101.50356
