---ACOUSTIC CALIBRATION---
Filename: C:\Data\AZH DATA\AZH82\RightPrimary.calib
Date: 8/27/2019 4:50:10 PM
Format: 4
Probe Tube Correction File: C:\Data\Probe Tube Calibrations\50_ProbeTube.calib
Experiment VIs: 850
EPL_CFTS.exe V12.0.1 (2012)
DAQmx V9.6

Attenuation (dB): 40.000000
Min Freq (Hz): 50.000000
Max Freq (Hz): 49950.000000
Freq Step (Hz): 50.000000
Sample Rate (Hz): 100000.000000
[Smoothing]
Method=None
MA.Iterations=0
MA.Length=0
Loess.Length=0
Loess.Type=Linear
Loess.Robust=FALSE


Freq(Hz)	Mag(dB)	Phase(deg)	Unsmoothed(dB)

50.00000	109.14099	320.63107	109.14099
100.00000	80.15109	147.44785	80.15109
150.00000	74.46900	119.39821	74.46900
200.00000	81.45920	81.62234	81.45920
250.00000	88.58901	80.26245	88.58901
300.00000	84.12334	49.86402	84.12334
350.00000	88.66468	31.78450	88.66468
400.00000	86.80644	23.80151	86.80644
450.00000	87.82444	10.66471	87.82444
500.00000	90.22346	 2.28809	90.22346
550.00000	92.81005	 4.45018	92.81005
600.00000	94.83194	10.55685	94.83194
650.00000	97.01773	-5.94450	97.01773
700.00000	99.82395	-23.70096	99.82395
750.00000	101.02204	-43.26736	101.02204
800.00000	102.20976	-63.67669	102.20976
850.00000	101.30840	-82.91284	101.30840
900.00000	99.52777	-96.76108	99.52777
950.00000	97.76794	-100.68665	97.76794
1000.00000	96.22763	-102.70868	96.22763
1050.00000	94.31254	-84.41005	94.31254
1100.00000	95.92253	-64.07607	95.92253
1150.00000	98.81173	-59.34668	98.81173
1200.00000	101.50048	-61.31161	101.50048
1250.00000	103.25843	-69.20348	103.25843
1300.00000	105.01643	-75.76866	105.01643
1350.00000	106.18048	-84.52851	106.18048
1400.00000	106.97721	-91.77906	106.97721
1450.00000	107.96397	-98.51768	107.96397
1500.00000	108.99943	-106.02896	108.99943
1550.00000	109.84427	-114.06528	109.84427
1600.00000	111.38628	-124.00273	111.38628
1650.00000	112.27057	-140.53318	112.27057
1700.00000	111.05124	-150.58393	111.05124
1750.00000	110.76217	-155.79917	110.76217
1800.00000	110.55440	-160.70226	110.55440
1850.00000	110.56967	-161.11188	110.56967
1900.00000	111.84089	-165.03293	111.84089
1950.00000	112.49569	-178.54261	112.49569
2000.00000	111.55742	-190.44790	111.55742
2050.00000	110.26742	-185.44790	110.26742
2100.00000	112.21736	-186.42800	112.21736
2150.00000	112.74364	-197.98294	112.74364
2200.00000	112.61653	-207.91285	112.61653
2250.00000	112.10014	-214.57552	112.10014
2300.00000	112.19648	-220.64365	112.19648
2350.00000	111.92705	-226.69183	111.92705
2400.00000	111.61012	-232.53061	111.61012
2450.00000	111.39639	-238.70839	111.39639
2500.00000	111.05039	-244.15988	111.05039
2550.00000	110.53564	-248.98827	110.53564
2600.00000	110.06719	-253.50775	110.06719
2650.00000	109.50577	-257.80851	109.50577
2700.00000	108.98341	-261.50856	108.98341
2750.00000	108.44958	-264.55332	108.44958
2800.00000	107.81834	-266.60673	107.81834
2850.00000	107.23009	-269.64862	107.23009
2900.00000	106.61661	-271.28252	106.61661
2950.00000	105.95150	-272.15299	105.95150
3000.00000	105.33939	-273.85124	105.33939
3050.00000	104.55824	-274.19284	104.55824
3100.00000	103.65680	-273.61629	103.65680
3150.00000	102.57496	-273.73798	102.57496
3200.00000	101.32715	-266.88382	101.32715
3250.00000	100.40861	-256.23311	100.40861
3300.00000	99.88953	-245.36549	99.88953
3350.00000	100.13375	-227.10975	100.13375
3400.00000	102.12749	-211.42715	102.12749
3450.00000	104.69712	-203.95620	104.69712
3500.00000	107.26801	-202.74445	107.26801
3550.00000	109.30294	-206.73123	109.30294
3600.00000	111.04213	-210.46412	111.04213
3650.00000	112.47522	-215.67403	112.47522
3700.00000	113.75604	-220.46546	113.75604
3750.00000	115.06107	-225.97148	115.06107
3800.00000	116.28783	-232.65824	116.28783
3850.00000	117.27470	-239.34486	117.27470
3900.00000	118.22962	-246.10943	118.22962
3950.00000	119.13840	-253.27655	119.13840
4000.00000	119.98144	-260.70479	119.98144
4050.00000	120.74621	-268.10529	120.74621
4100.00000	121.57327	-275.59364	121.57327
4150.00000	122.56145	-283.93920	122.56145
4200.00000	123.27615	-294.02369	123.27615
4250.00000	123.95823	-305.05051	123.95823
4300.00000	124.40097	-317.12578	124.40097
4350.00000	124.50245	-329.58648	124.50245
4400.00000	124.35694	-341.29049	124.35694
4450.00000	124.04052	-351.90280	124.04052
4500.00000	123.63439	-361.54658	123.63439
4550.00000	123.19921	-370.64750	123.19921
4600.00000	122.70694	-379.02733	122.70694
4650.00000	122.25700	-386.93294	122.25700
4700.00000	121.75630	-395.35403	121.75630
4750.00000	121.12502	-403.91377	121.12502
4800.00000	120.31222	-412.55257	120.31222
4850.00000	119.19753	-420.27264	119.19753
4900.00000	117.86991	-426.14026	117.86991
4950.00000	116.47138	-429.15290	116.47138
5000.00000	115.20580	-429.91801	115.20580
5050.00000	114.08463	-429.76339	114.08463
5100.00000	112.89580	-425.75955	112.89580
5150.00000	112.82447	-420.42812	112.82447
5200.00000	112.05789	-415.80906	112.05789
5250.00000	113.43594	-402.85248	113.43594
5300.00000	115.84658	-410.90104	115.84658
5350.00000	116.06003	-423.81844	116.06003
5400.00000	115.51206	-431.46711	115.51206
5450.00000	114.99225	-435.92626	114.99225
5500.00000	114.56521	-439.15998	114.56521
5550.00000	114.24421	-441.84960	114.24421
5600.00000	113.99330	-444.26650	113.99330
5650.00000	113.79565	-446.68159	113.79565
5700.00000	113.59344	-449.20429	113.59344
5750.00000	113.44563	-451.52750	113.44563
5800.00000	113.27332	-453.99014	113.27332
5850.00000	113.14176	-456.34595	113.14176
5900.00000	113.03218	-458.84586	113.03218
5950.00000	112.89064	-461.20303	112.89064
6000.00000	112.77519	-463.41094	112.77519
6050.00000	112.67657	-465.63280	112.67657
6100.00000	112.61558	-467.91779	112.61558
6150.00000	112.56521	-470.25534	112.56521
6200.00000	112.50808	-472.78224	112.50808
6250.00000	112.46816	-475.48217	112.46816
6300.00000	112.41320	-478.23024	112.41320
6350.00000	112.32940	-481.00542	112.32940
6400.00000	112.26390	-483.74157	112.26390
6450.00000	112.19248	-486.43658	112.19248
6500.00000	112.10205	-489.19634	112.10205
6550.00000	112.01174	-491.86830	112.01174
6600.00000	111.94104	-494.43534	111.94104
6650.00000	111.86995	-497.06015	111.86995
6700.00000	111.81851	-499.85785	111.81851
6750.00000	111.75703	-502.47821	111.75703
6800.00000	111.70933	-505.08126	111.70933
6850.00000	111.65879	-507.79238	111.65879
6900.00000	111.61410	-510.45866	111.61410
6950.00000	111.56830	-513.04161	111.56830
7000.00000	111.56358	-515.78147	111.56358
7050.00000	111.54070	-518.67244	111.54070
7100.00000	111.52588	-521.73325	111.52588
7150.00000	111.50025	-524.68140	111.50025
7200.00000	111.46735	-527.85645	111.46735
7250.00000	111.41104	-531.00724	111.41104
7300.00000	111.39154	-534.29506	111.39154
7350.00000	111.32473	-537.44789	111.32473
7400.00000	111.28390	-540.94501	111.28390
7450.00000	111.20414	-544.33874	111.20414
7500.00000	111.09820	-547.80479	111.09820
7550.00000	111.04806	-551.37334	111.04806
7600.00000	110.91671	-554.85069	110.91671
7650.00000	110.78658	-558.33576	110.78658
7700.00000	110.71129	-561.80583	110.71129
7750.00000	110.53499	-565.25443	110.53499
7800.00000	110.38307	-568.70443	110.38307
7850.00000	110.21261	-572.16655	110.21261
7900.00000	110.05571	-575.34486	110.05571
7950.00000	109.89242	-578.87102	109.89242
8000.00000	109.71255	-582.20112	109.71255
8050.00000	109.52052	-585.89098	109.52052
8100.00000	109.31428	-588.68665	109.31428
8150.00000	109.08003	-591.79995	109.08003
8200.00000	108.85811	-594.81390	108.85811
8250.00000	108.60350	-598.10947	108.60350
8300.00000	108.35270	-601.17973	108.35270
8350.00000	108.08036	-603.95942	108.08036
8400.00000	107.80839	-607.35080	107.80839
8450.00000	107.46672	-610.23585	107.46672
8500.00000	107.19427	-613.55526	107.19427
8550.00000	106.94195	-616.54195	106.94195
8600.00000	106.65155	-619.89634	106.65155
8650.00000	106.34010	-622.69350	106.34010
8700.00000	106.07825	-625.88595	106.07825
8750.00000	105.74569	-627.86587	105.74569
8800.00000	105.47380	-630.66560	105.47380
8850.00000	105.10486	-633.01174	105.10486
8900.00000	104.77739	-634.78440	104.77739
8950.00000	104.42043	-637.11331	104.42043
9000.00000	103.98912	-639.24291	103.98912
9050.00000	103.62134	-641.56519	103.62134
9100.00000	103.24559	-643.51483	103.24559
9150.00000	102.90036	-645.81247	102.90036
9200.00000	102.64191	-648.02633	102.64191
9250.00000	102.31778	-650.52470	102.31778
9300.00000	102.11522	-652.38926	102.11522
9350.00000	101.96908	-654.44031	101.96908
9400.00000	101.68498	-655.54236	101.68498
9450.00000	101.51073	-656.33588	101.51073
9500.00000	101.37785	-656.35486	101.37785
9550.00000	101.29274	-656.29561	101.29274
9600.00000	101.22032	-657.57048	101.22032
9650.00000	101.00007	-659.15609	101.00007
9700.00000	100.74166	-660.07480	100.74166
9750.00000	100.57799	-662.32435	100.57799
9800.00000	100.33227	-663.93538	100.33227
9850.00000	100.19370	-665.58531	100.19370
9900.00000	99.94033	-667.56321	99.94033
9950.00000	99.84863	-668.91988	99.84863
10000.00000	99.78849	-671.01102	99.78849
10050.00000	99.69293	-672.28651	99.69293
10100.00000	99.53213	-673.43607	99.53213
10150.00000	99.30839	-675.14769	99.30839
10200.00000	99.13073	-676.62699	99.13073
10250.00000	98.86992	-678.56727	98.86992
10300.00000	98.75143	-680.79707	98.75143
10350.00000	98.53866	-682.88236	98.53866
10400.00000	98.31902	-685.65429	98.31902
10450.00000	98.26391	-688.53045	98.26391
10500.00000	98.23551	-690.90232	98.23551
10550.00000	98.16274	-693.26604	98.16274
10600.00000	98.07363	-695.13668	98.07363
10650.00000	97.92606	-696.61173	97.92606
10700.00000	97.79776	-699.46289	97.79776
10750.00000	97.64140	-701.46123	97.64140
10800.00000	97.32416	-703.36577	97.32416
10850.00000	97.07615	-706.53996	97.07615
10900.00000	96.82838	-708.93787	96.82838
10950.00000	96.59391	-711.07803	96.59391
11000.00000	96.39052	-713.57701	96.39052
11050.00000	96.00751	-715.94758	96.00751
11100.00000	95.74684	-718.23228	95.74684
11150.00000	95.36476	-720.05128	95.36476
11200.00000	95.09168	-721.65387	95.09168
11250.00000	94.62968	-724.00498	94.62968
11300.00000	94.16863	-726.24853	94.16863
11350.00000	93.71239	-727.70513	93.71239
11400.00000	93.16106	-729.37532	93.16106
11450.00000	92.72596	-731.23419	92.72596
11500.00000	92.39680	-731.72490	92.39680
11550.00000	91.88802	-732.38766	91.88802
11600.00000	91.60060	-733.60564	91.60060
11650.00000	91.15528	-733.08299	91.15528
11700.00000	90.77612	-733.05287	90.77612
11750.00000	90.44201	-733.02490	90.44201
11800.00000	90.08021	-732.76847	90.08021
11850.00000	89.78567	-731.48655	89.78567
11900.00000	89.35527	-731.09581	89.35527
11950.00000	89.13210	-730.06315	89.13210
12000.00000	88.82453	-728.65154	88.82453
12050.00000	88.62065	-727.36983	88.62065
12100.00000	88.47139	-727.83314	88.47139
12150.00000	88.37779	-727.79289	88.37779
12200.00000	88.31839	-727.30018	88.31839
12250.00000	88.26009	-726.31193	88.26009
12300.00000	89.36540	-725.53304	89.36540
12350.00000	88.28024	-724.90301	88.28024
12400.00000	88.24422	-723.73128	88.24422
12450.00000	88.19851	-722.44730	88.19851
12500.00000	88.11458	-722.88857	88.11458
12550.00000	88.09202	-722.86083	88.09202
12600.00000	88.11232	-723.43950	88.11232
12650.00000	88.35547	-723.83306	88.35547
12700.00000	88.33192	-724.59834	88.33192
12750.00000	88.35763	-725.26750	88.35763
12800.00000	88.36035	-724.85660	88.36035
12850.00000	88.12609	-725.11083	88.12609
12900.00000	88.17177	-725.40263	88.17177
12950.00000	88.15814	-726.52880	88.15814
13000.00000	88.07311	-727.75711	88.07311
13050.00000	88.09613	-727.37331	88.09613
13100.00000	88.06860	-728.46617	88.06860
13150.00000	88.11010	-729.34945	88.11010
13200.00000	88.14348	-728.98861	88.14348
13250.00000	88.12956	-729.08831	88.12956
13300.00000	88.03813	-727.57530	88.03813
13350.00000	87.89902	-728.51643	87.89902
13400.00000	87.97464	-728.86108	87.97464
13450.00000	87.88046	-728.52001	87.88046
13500.00000	88.06386	-727.87545	88.06386
13550.00000	87.83555	-728.47708	87.83555
13600.00000	87.89136	-727.40222	87.89136
13650.00000	87.92427	-727.49683	87.92427
13700.00000	87.77350	-727.36067	87.77350
13750.00000	87.84320	-727.47830	87.84320
13800.00000	87.70188	-729.71677	87.70188
13850.00000	87.85538	-730.40494	87.85538
13900.00000	87.81839	-729.51913	87.81839
13950.00000	87.98056	-728.96002	87.98056
14000.00000	88.19355	-727.05314	88.19355
14050.00000	88.31757	-727.10116	88.31757
14100.00000	88.22176	-726.87543	88.22176
14150.00000	88.30140	-726.92577	88.30140
14200.00000	88.49227	-726.79682	88.49227
14250.00000	89.06773	-724.89370	89.06773
14300.00000	89.18633	-724.62862	89.18633
14350.00000	89.26993	-723.08143	89.26993
14400.00000	89.03536	-722.68967	89.03536
14450.00000	89.21030	-721.45527	89.21030
14500.00000	89.34951	-722.25851	89.34951
14550.00000	89.75334	-721.00072	89.75334
14600.00000	89.88013	-722.05229	89.88013
14650.00000	90.35228	-719.79009	90.35228
14700.00000	90.69382	-723.49160	90.69382
14750.00000	90.99628	-722.23195	90.99628
14800.00000	91.25313	-721.55513	91.25313
14850.00000	91.69252	-720.65237	91.69252
14900.00000	92.15473	-720.85476	92.15473
14950.00000	92.57153	-721.59961	92.57153
15000.00000	93.09860	-722.00061	93.09860
15050.00000	93.39557	-721.45458	93.39557
15100.00000	93.95061	-721.50026	93.95061
15150.00000	94.53635	-722.86428	94.53635
15200.00000	94.88175	-723.19416	94.88175
15250.00000	95.20914	-725.62587	95.20914
15300.00000	95.86851	-727.69177	95.86851
15350.00000	96.29714	-730.24655	96.29714
15400.00000	96.68112	-731.45832	96.68112
15450.00000	97.03702	-734.00235	97.03702
15500.00000	97.51684	-736.08981	97.51684
15550.00000	97.93515	-739.27364	97.93515
15600.00000	98.22536	-741.88954	98.22536
15650.00000	98.63546	-743.01477	98.63546
15700.00000	98.78859	-746.79240	98.78859
15750.00000	99.20431	-749.19812	99.20431
15800.00000	99.52908	-750.77395	99.52908
15850.00000	99.72934	-753.09587	99.72934
15900.00000	99.88706	-755.97622	99.88706
15950.00000	100.18645	-758.71016	100.18645
16000.00000	100.46571	-760.82022	100.46571
16050.00000	100.79008	-763.02469	100.79008
16100.00000	100.91601	-765.73619	100.91601
16150.00000	101.14859	-768.07629	101.14859
16200.00000	101.39403	-771.33349	101.39403
16250.00000	101.67096	-773.47708	101.67096
16300.00000	102.08307	-776.22966	102.08307
16350.00000	102.27389	-778.80067	102.27389
16400.00000	102.52607	-780.96401	102.52607
16450.00000	102.75615	-783.45220	102.75615
16500.00000	102.98495	-786.43204	102.98495
16550.00000	103.23975	-790.01198	103.23975
16600.00000	103.53432	-792.52449	103.53432
16650.00000	103.73457	-795.25617	103.73457
16700.00000	103.95435	-797.93331	103.95435
16750.00000	104.05303	-801.14319	104.05303
16800.00000	104.29896	-804.70561	104.29896
16850.00000	104.55485	-807.60529	104.55485
16900.00000	104.76003	-810.88154	104.76003
16950.00000	104.93413	-813.99438	104.93413
17000.00000	104.95313	-817.15876	104.95313
17050.00000	105.19646	-819.54778	105.19646
17100.00000	105.23862	-821.76908	105.23862
17150.00000	105.51438	-825.82112	105.51438
17200.00000	105.66581	-828.71561	105.66581
17250.00000	105.73769	-832.22342	105.73769
17300.00000	105.94006	-835.19786	105.94006
17350.00000	105.95092	-838.04087	105.95092
17400.00000	106.11863	-841.16578	106.11863
17450.00000	106.18612	-844.65971	106.18612
17500.00000	106.33777	-847.72133	106.33777
17550.00000	106.46785	-850.74050	106.46785
17600.00000	106.65529	-853.37888	106.65529
17650.00000	106.71732	-857.33221	106.71732
17700.00000	106.79743	-860.76265	106.79743
17750.00000	107.00400	-863.27004	107.00400
17800.00000	107.00549	-867.17177	107.00549
17850.00000	107.13092	-869.90491	107.13092
17900.00000	107.16780	-873.27608	107.16780
17950.00000	107.33537	-876.91782	107.33537
18000.00000	107.39837	-880.83349	107.39837
18050.00000	107.58770	-883.63934	107.58770
18100.00000	107.56563	-887.54421	107.56563
18150.00000	107.63086	-890.40583	107.63086
18200.00000	107.60699	-894.48813	107.60699
18250.00000	107.71411	-897.11965	107.71411
18300.00000	107.80801	-900.72608	107.80801
18350.00000	107.82556	-904.01950	107.82556
18400.00000	107.78854	-907.83489	107.78854
18450.00000	107.77164	-912.40039	107.77164
18500.00000	107.76438	-915.75158	107.76438
18550.00000	107.74414	-918.65394	107.74414
18600.00000	107.81969	-922.71929	107.81969
18650.00000	107.66444	-925.90524	107.66444
18700.00000	107.58579	-929.73225	107.58579
18750.00000	107.59190	-932.92392	107.59190
18800.00000	107.64776	-935.74593	107.64776
18850.00000	107.45989	-939.28173	107.45989
18900.00000	107.37205	-942.34195	107.37205
18950.00000	107.33643	-946.02415	107.33643
19000.00000	107.11948	-948.76084	107.11948
19050.00000	107.18135	-951.85125	107.18135
19100.00000	107.04672	-954.73905	107.04672
19150.00000	107.10981	-957.59373	107.10981
19200.00000	107.01003	-960.21410	107.01003
19250.00000	106.91168	-964.30919	106.91168
19300.00000	106.77417	-966.51027	106.77417
19350.00000	106.73877	-969.51241	106.73877
19400.00000	106.62078	-972.31203	106.62078
19450.00000	106.64394	-974.57710	106.64394
19500.00000	106.49357	-978.26631	106.49357
19550.00000	106.43629	-981.06208	106.43629
19600.00000	106.43026	-984.40608	106.43026
19650.00000	106.29254	-986.78404	106.29254
19700.00000	106.13158	-989.87528	106.13158
19750.00000	106.03041	-992.10758	106.03041
19800.00000	106.04588	-995.85700	106.04588
19850.00000	105.96743	-998.36103	105.96743
19900.00000	105.83481	-1001.92451	105.83481
19950.00000	105.71298	-1004.60062	105.71298
20000.00000	105.63006	-1007.47134	105.63006
20050.00000	105.54416	-1010.43522	105.54416
20100.00000	105.34124	-1013.35138	105.34124
20150.00000	105.29120	-1015.21539	105.29120
20200.00000	105.12487	-1018.92630	105.12487
20250.00000	104.94797	-1021.58003	104.94797
20300.00000	104.72919	-1024.36811	104.72919
20350.00000	104.65482	-1027.24271	104.65482
20400.00000	104.41964	-1029.23225	104.41964
20450.00000	104.16535	-1031.94113	104.16535
20500.00000	104.05449	-1034.82078	104.05449
20550.00000	103.61782	-1036.54800	103.61782
20600.00000	103.50107	-1038.44751	103.50107
20650.00000	103.28707	-1040.59533	103.28707
20700.00000	103.01653	-1042.51101	103.01653
20750.00000	102.85816	-1044.16393	102.85816
20800.00000	102.58734	-1045.47523	102.58734
20850.00000	102.44855	-1047.02471	102.44855
20900.00000	102.18711	-1048.30774	102.18711
20950.00000	102.00716	-1049.00791	102.00716
21000.00000	101.83031	-1049.71073	101.83031
21050.00000	101.83665	-1050.28934	101.83665
21100.00000	101.70424	-1050.83451	101.70424
21150.00000	101.69910	-1051.79733	101.69910
21200.00000	101.73845	-1052.24303	101.73845
21250.00000	101.70579	-1054.25771	101.70579
21300.00000	101.79273	-1054.74251	101.79273
21350.00000	101.80835	-1055.74829	101.80835
21400.00000	101.83109	-1057.36469	101.83109
21450.00000	101.89568	-1058.88843	101.89568
21500.00000	101.96576	-1060.87598	101.96576
21550.00000	101.90307	-1062.08570	101.90307
21600.00000	102.02125	-1063.98013	102.02125
21650.00000	102.01701	-1066.21755	102.01701
21700.00000	102.01296	-1067.82339	102.01296
21750.00000	102.02301	-1069.71657	102.02301
21800.00000	102.03474	-1071.80775	102.03474
21850.00000	101.96378	-1073.74323	101.96378
21900.00000	101.95724	-1075.51331	101.95724
21950.00000	101.91677	-1077.10862	101.91677
22000.00000	101.95240	-1078.94168	101.95240
22050.00000	101.87656	-1080.38983	101.87656
22100.00000	101.86906	-1082.25250	101.86906
22150.00000	101.83421	-1083.85861	101.83421
22200.00000	101.87509	-1085.52873	101.87509
22250.00000	101.81086	-1086.96146	101.81086
22300.00000	101.70726	-1088.74289	101.70726
22350.00000	101.82126	-1090.60906	101.82126
22400.00000	101.85632	-1092.45193	101.85632
22450.00000	101.74787	-1093.90913	101.74787
22500.00000	101.70805	-1094.83688	101.70805
22550.00000	101.69525	-1096.78971	101.69525
22600.00000	101.73939	-1099.27082	101.73939
