---ACOUSTIC CALIBRATION---
Filename: C:\Data\AZH DATA\AZH82\RightPrimary.calib
Date: 8/27/2019 4:50:54 PM
Format: 4
Probe Tube Correction File: C:\Data\Probe Tube Calibrations\50_ProbeTube.calib
Experiment VIs: 850
EPL_CFTS.exe V12.0.1 (2012)
DAQmx V9.6

Attenuation (dB): 40.000000
Min Freq (Hz): 50.000000
Max Freq (Hz): 49950.000000
Freq Step (Hz): 50.000000
Sample Rate (Hz): 100000.000000
[Smoothing]
Method=None
MA.Iterations=0
MA.Length=0
Loess.Length=0
Loess.Type=Linear
Loess.Robust=FALSE


Freq(Hz)	Mag(dB)	Phase(deg)	Unsmoothed(dB)

50.00000	93.52555	407.81514	93.52555
100.00000	82.41125	533.36743	82.41125
150.00000	74.45643	511.48247	74.45643
200.00000	82.10169	447.98691	82.10169
250.00000	88.53347	438.36251	88.53347
300.00000	90.17357	378.07193	90.17357
350.00000	82.09149	358.20722	82.09149
400.00000	89.31841	371.68313	89.31841
450.00000	88.13073	371.27534	88.13073
500.00000	92.61403	385.39634	92.61403
550.00000	93.62999	373.54658	93.62999
600.00000	96.84144	368.57226	96.84144
650.00000	98.81302	351.67994	98.81302
700.00000	100.97241	335.44124	100.97241
750.00000	102.51782	316.98443	102.51782
800.00000	102.44765	293.61805	102.44765
850.00000	102.43553	276.58633	102.43553
900.00000	100.46300	258.25711	100.46300
950.00000	98.97158	255.97518	98.97158
1000.00000	97.50909	255.16526	97.50909
1050.00000	95.17545	271.25617	95.17545
1100.00000	97.35095	293.65000	97.35095
1150.00000	99.99848	299.39757	99.99848
1200.00000	102.70760	299.07453	102.70760
1250.00000	104.64449	289.56087	104.64449
1300.00000	106.10072	284.88480	106.10072
1350.00000	107.51255	274.41194	107.51255
1400.00000	108.15740	266.29355	108.15740
1450.00000	109.21548	260.54973	109.21548
1500.00000	109.96382	252.69360	109.96382
1550.00000	111.09908	244.80794	111.09908
1600.00000	112.69947	235.26284	112.69947
1650.00000	113.56540	218.60326	113.56540
1700.00000	112.41949	208.44038	112.41949
1750.00000	112.08820	202.42491	112.08820
1800.00000	111.73408	198.47251	111.73408
1850.00000	111.97818	197.13957	111.97818
1900.00000	113.12275	193.31163	113.12275
1950.00000	113.81198	179.73773	113.81198
2000.00000	112.93569	167.50298	112.93569
2050.00000	111.58888	172.44198	111.58888
2100.00000	113.46163	171.41631	113.46163
2150.00000	114.03961	160.34200	114.03961
2200.00000	113.86227	150.48119	113.86227
2250.00000	113.30866	143.18070	113.30866
2300.00000	113.35857	137.87395	113.35857
2350.00000	113.19606	131.25610	113.19606
2400.00000	112.88188	125.18495	112.88188
2450.00000	112.62001	119.18277	112.62001
2500.00000	112.22832	113.74688	112.22832
2550.00000	111.77542	108.93157	111.77542
2600.00000	111.26896	104.52084	111.26896
2650.00000	110.77209	100.56638	110.77209
2700.00000	110.24059	96.92423	110.24059
2750.00000	109.71396	93.35507	109.71396
2800.00000	109.08289	90.59754	109.08289
2850.00000	108.55853	88.47505	108.55853
2900.00000	107.93896	86.31332	107.93896
2950.00000	107.30000	85.44524	107.30000
3000.00000	106.68967	84.21983	106.68967
3050.00000	105.92748	83.25123	105.92748
3100.00000	105.31052	84.07513	105.31052
3150.00000	104.31127	84.28828	104.31127
3200.00000	103.04737	88.29238	103.04737
3250.00000	102.07677	96.92519	102.07677
3300.00000	101.41367	107.11412	101.41367
3350.00000	101.30698	123.47010	101.30698
3400.00000	102.79860	140.77921	102.79860
3450.00000	105.28086	150.41634	105.28086
3500.00000	107.81569	152.52373	107.81569
3550.00000	109.90153	149.92969	109.90153
3600.00000	111.70051	146.65247	111.70051
3650.00000	113.19448	141.44123	113.19448
3700.00000	114.51112	136.79226	114.51112
3750.00000	115.85390	131.58255	115.85390
3800.00000	117.07703	125.22665	117.07703
3850.00000	118.11621	118.47460	118.11621
3900.00000	119.09551	111.79499	119.09551
3950.00000	120.03690	104.67571	120.03690
4000.00000	120.87727	97.10573	120.87727
4050.00000	121.66581	89.80441	121.66581
4100.00000	122.48746	82.36045	122.48746
4150.00000	123.50441	74.08584	123.50441
4200.00000	124.24252	64.13821	124.24252
4250.00000	124.95223	53.07834	124.95223
4300.00000	125.43049	40.95056	125.43049
4350.00000	125.57649	28.33569	125.57649
4400.00000	125.45430	16.45109	125.45430
4450.00000	125.14550	 5.42182	125.14550
4500.00000	124.72726	-4.49964	124.72726
4550.00000	124.26699	-13.72740	124.26699
4600.00000	123.75041	-22.31417	123.75041
4650.00000	123.27389	-30.43327	123.27389
4700.00000	122.74416	-38.82770	122.74416
4750.00000	122.08752	-47.32086	122.08752
4800.00000	121.25614	-55.90169	121.25614
4850.00000	120.13282	-63.63888	120.13282
4900.00000	118.80314	-69.40016	118.80314
4950.00000	117.40876	-72.62765	117.40876
5000.00000	116.13599	-73.45223	116.13599
5050.00000	114.99252	-73.19847	114.99252
5100.00000	113.77389	-69.31219	113.77389
5150.00000	113.66173	-63.82539	113.66173
5200.00000	112.82485	-59.70083	112.82485
5250.00000	113.98293	-45.41054	113.98293
5300.00000	116.63860	-51.76095	116.63860
5350.00000	117.05073	-65.33846	117.05073
5400.00000	116.53979	-73.70989	116.53979
5450.00000	116.00293	-78.42721	116.00293
5500.00000	115.56235	-81.79801	115.56235
5550.00000	115.25849	-84.57449	115.25849
5600.00000	114.97861	-87.14523	114.97861
5650.00000	114.76608	-89.60043	114.76608
5700.00000	114.57862	-92.19689	114.57862
5750.00000	114.42288	-94.55682	114.42288
5800.00000	114.26716	-96.95440	114.26716
5850.00000	114.13644	-99.45113	114.13644
5900.00000	114.01762	-102.00371	114.01762
5950.00000	113.89803	-104.41620	113.89803
6000.00000	113.79031	-106.68117	113.79031
6050.00000	113.68711	-109.08530	113.68711
6100.00000	113.61555	-111.31541	113.61555
6150.00000	113.55879	-113.79380	113.55879
6200.00000	113.49546	-116.31793	113.49546
6250.00000	113.47349	-118.97688	113.47349
6300.00000	113.43013	-121.67990	113.43013
6350.00000	113.36016	-124.66793	113.36016
6400.00000	113.28540	-127.39887	113.28540
6450.00000	113.24537	-130.35625	113.24537
6500.00000	113.15708	-133.12194	113.15708
6550.00000	113.07197	-135.86765	113.07197
6600.00000	113.00813	-138.66912	113.00813
6650.00000	112.94691	-141.42946	112.94691
6700.00000	112.89425	-144.27121	112.89425
6750.00000	112.84025	-147.10695	112.84025
6800.00000	112.79617	-149.80333	112.79617
6850.00000	112.77360	-152.67464	112.77360
6900.00000	112.72686	-155.46702	112.72686
6950.00000	112.68565	-158.31188	112.68565
7000.00000	112.66767	-161.30113	112.66767
7050.00000	112.64435	-164.46022	112.64435
7100.00000	112.63330	-167.67239	112.63330
7150.00000	112.60807	-170.84419	112.60807
7200.00000	112.57573	-174.20914	112.57573
7250.00000	112.51451	-177.82370	112.51451
7300.00000	112.47570	-181.34360	112.47570
7350.00000	112.39712	-184.83172	112.39712
7400.00000	112.34192	-188.58473	112.34192
7450.00000	112.25894	-192.37614	112.25894
7500.00000	112.11590	-196.24944	112.11590
7550.00000	112.04700	-200.15907	112.04700
7600.00000	111.87948	-204.00286	111.87948
7650.00000	111.71869	-207.93870	111.71869
7700.00000	111.56927	-211.75782	111.56927
7750.00000	111.33868	-215.74844	111.33868
7800.00000	111.13436	-219.59310	111.13436
7850.00000	110.88830	-223.27490	110.88830
7900.00000	110.63493	-226.75027	110.63493
7950.00000	110.40131	-230.60873	110.40131
8000.00000	110.12948	-234.21006	110.12948
8050.00000	109.81180	-238.00570	109.81180
8100.00000	109.51142	-240.76587	109.51142
8150.00000	109.15639	-243.95735	109.15639
8200.00000	108.83268	-246.81719	108.83268
8250.00000	108.44676	-249.97870	108.44676
8300.00000	108.07971	-252.73872	108.07971
8350.00000	107.69396	-255.41696	107.69396
8400.00000	107.31080	-258.38618	107.31080
8450.00000	106.87734	-261.12380	106.87734
8500.00000	106.50927	-263.98084	106.50927
8550.00000	106.17128	-266.45789	106.17128
8600.00000	105.82701	-269.31660	105.82701
8650.00000	105.46158	-271.56536	105.46158
8700.00000	105.18014	-274.37501	105.18014
8750.00000	104.81437	-275.37626	104.81437
8800.00000	104.53098	-277.51514	104.53098
8850.00000	104.13996	-279.15174	104.13996
8900.00000	103.80539	-280.17032	103.80539
8950.00000	103.43300	-281.90545	103.43300
9000.00000	102.96857	-283.25989	102.96857
9050.00000	102.58913	-285.20810	102.58913
9100.00000	102.16707	-286.86123	102.16707
9150.00000	101.81253	-288.78599	101.81253
9200.00000	101.54457	-290.85076	101.54457
9250.00000	101.25084	-292.86287	101.25084
9300.00000	101.07291	-294.73131	101.07291
9350.00000	100.97875	-296.39411	100.97875
9400.00000	100.77524	-297.18557	100.77524
9450.00000	100.63123	-297.47533	100.63123
9500.00000	100.52074	-297.09267	100.52074
9550.00000	100.46490	-296.67090	100.46490
9600.00000	100.41421	-297.71631	100.41421
9650.00000	100.17196	-298.76190	100.17196
9700.00000	99.91841	-299.46137	99.91841
9750.00000	99.74018	-301.67779	99.74018
9800.00000	99.50711	-303.00467	99.50711
9850.00000	99.34302	-304.64639	99.34302
9900.00000	99.14280	-306.62732	99.14280
9950.00000	99.10130	-307.96849	99.10130
10000.00000	99.09409	-309.63986	99.09409
10050.00000	99.02990	-310.99349	99.02990
10100.00000	98.93798	-311.90000	98.93798
10150.00000	98.70852	-313.39699	98.70852
10200.00000	98.54507	-314.61350	98.54507
10250.00000	98.30918	-316.29561	98.30918
10300.00000	98.16904	-318.29531	98.16904
10350.00000	97.93218	-320.54692	97.93218
10400.00000	97.69235	-323.44967	97.69235
10450.00000	97.66400	-326.38098	97.66400
10500.00000	97.63841	-328.87122	97.63841
10550.00000	97.59913	-331.26361	97.59913
10600.00000	97.51932	-333.20233	97.51932
10650.00000	97.38708	-334.33175	97.38708
10700.00000	97.22605	-336.81357	97.22605
10750.00000	97.06749	-338.82032	97.06749
10800.00000	96.76167	-340.55583	96.76167
10850.00000	96.49420	-343.85988	96.49420
10900.00000	96.21466	-345.84124	96.21466
10950.00000	95.94961	-348.00459	95.94961
11000.00000	95.72559	-350.48739	95.72559
11050.00000	95.33648	-352.63118	95.33648
11100.00000	95.07831	-354.80488	95.07831
11150.00000	94.69260	-356.37365	94.69260
11200.00000	94.40138	-357.75021	94.40138
11250.00000	93.94103	-359.72727	93.94103
11300.00000	93.43853	-361.33417	93.43853
11350.00000	92.96455	-362.55032	92.96455
11400.00000	92.43929	-363.97897	92.43929
11450.00000	91.99002	-365.41077	91.99002
11500.00000	91.70952	-365.42806	91.70952
11550.00000	91.21896	-365.70053	91.21896
11600.00000	90.96840	-366.63185	90.96840
11650.00000	90.56401	-365.83859	90.56401
11700.00000	90.25097	-365.46821	90.25097
11750.00000	89.93537	-365.12741	89.93537
11800.00000	89.68514	-364.78390	89.68514
11850.00000	89.48821	-363.29450	89.48821
11900.00000	89.04465	-362.96981	89.04465
11950.00000	88.93162	-361.85597	88.93162
12000.00000	88.65410	-360.50894	88.65410
12050.00000	88.45032	-359.37921	88.45032
12100.00000	88.28241	-359.80799	88.28241
12150.00000	88.16134	-359.66195	88.16134
12200.00000	88.14743	-359.58567	88.14743
12250.00000	88.08802	-358.72352	88.08802
12300.00000	89.27090	-358.44717	89.27090
12350.00000	88.18492	-357.62729	88.18492
12400.00000	88.15436	-355.89781	88.15436
12450.00000	88.11557	-354.73765	88.11557
12500.00000	88.06187	-354.36403	88.06187
12550.00000	88.00054	-354.52085	88.00054
12600.00000	87.88924	-355.69062	87.88924
12650.00000	88.06841	-355.59430	88.06841
12700.00000	88.04409	-356.18918	88.04409
12750.00000	88.13172	-357.03691	88.13172
12800.00000	88.26504	-356.84521	88.26504
12850.00000	87.98706	-356.25225	87.98706
12900.00000	88.00329	-356.26583	88.00329
12950.00000	88.02198	-356.84812	88.02198
13000.00000	87.84353	-357.56320	87.84353
13050.00000	87.87461	-357.74710	87.87461
13100.00000	87.81429	-358.20439	87.81429
13150.00000	87.92342	-359.13023	87.92342
13200.00000	87.94808	-357.67716	87.94808
13250.00000	88.00215	-358.26953	88.00215
13300.00000	87.90414	-356.50831	87.90414
13350.00000	87.86733	-356.07810	87.86733
13400.00000	87.95803	-356.79681	87.95803
13450.00000	87.77790	-355.82754	87.77790
13500.00000	87.92692	-354.88479	87.92692
13550.00000	87.81480	-355.35085	87.81480
13600.00000	87.97159	-353.87925	87.97159
13650.00000	88.05821	-353.30823	88.05821
13700.00000	87.93754	-352.89785	87.93754
13750.00000	87.81340	-352.09905	87.81340
13800.00000	87.80338	-353.35153	87.80338
13850.00000	87.98768	-354.43210	87.98768
13900.00000	88.02645	-353.41981	88.02645
13950.00000	88.35053	-352.21304	88.35053
14000.00000	88.67087	-349.88250	88.67087
14050.00000	88.84259	-349.27371	88.84259
14100.00000	88.89473	-348.42651	88.89473
14150.00000	88.96874	-347.80142	88.96874
14200.00000	89.35868	-347.17609	89.35868
14250.00000	89.95135	-345.18493	89.95135
14300.00000	90.25884	-345.30093	90.25884
14350.00000	90.54544	-343.04233	90.54544
14400.00000	90.60840	-342.75249	90.60840
14450.00000	90.85437	-341.08759	90.85437
14500.00000	91.18494	-340.95967	91.18494
14550.00000	91.57563	-340.91204	91.57563
14600.00000	91.85671	-342.46303	91.85671
14650.00000	92.56943	-340.59122	92.56943
14700.00000	92.98108	-345.00440	92.98108
14750.00000	93.51192	-344.06854	93.51192
14800.00000	93.88500	-343.49770	93.88500
14850.00000	94.45943	-343.43068	94.45943
14900.00000	94.99669	-344.52597	94.99669
14950.00000	95.53818	-345.69937	95.53818
15000.00000	96.06451	-347.40835	96.06451
15050.00000	96.45270	-347.23672	96.45270
15100.00000	97.04838	-347.89652	97.04838
15150.00000	97.72087	-350.09253	97.72087
15200.00000	98.10019	-350.73673	98.10019
15250.00000	98.43826	-353.63324	98.43826
15300.00000	99.12589	-356.32442	99.12589
15350.00000	99.53550	-359.74486	99.53550
15400.00000	99.97852	-361.25599	99.97852
15450.00000	100.43845	-364.21233	100.43845
15500.00000	100.98983	-367.17753	100.98983
15550.00000	101.41411	-370.48569	101.41411
15600.00000	101.75591	-373.83410	101.75591
15650.00000	102.24799	-375.38997	102.24799
15700.00000	102.42998	-379.98054	102.42998
15750.00000	102.88708	-382.92057	102.88708
15800.00000	103.23562	-385.30631	103.23562
15850.00000	103.50095	-388.47963	103.50095
15900.00000	103.70566	-392.11919	103.70566
15950.00000	104.01394	-395.55467	104.01394
16000.00000	104.26811	-398.74751	104.26811
16050.00000	104.59584	-401.86954	104.59584
16100.00000	104.72242	-405.53654	104.72242
16150.00000	104.90634	-408.60538	104.90634
16200.00000	105.12537	-412.38222	105.12537
16250.00000	105.36028	-415.50623	105.36028
16300.00000	105.71047	-419.03521	105.71047
16350.00000	105.85996	-422.12534	105.85996
16400.00000	106.01545	-425.17375	106.01545
16450.00000	106.20191	-428.27723	106.20191
16500.00000	106.33258	-431.65398	106.33258
16550.00000	106.55659	-435.49405	106.55659
16600.00000	106.72133	-438.63098	106.72133
16650.00000	106.82695	-441.68157	106.82695
16700.00000	107.00450	-444.70780	107.00450
16750.00000	107.03669	-448.42259	107.03669
16800.00000	107.20420	-451.88080	107.20420
16850.00000	107.40199	-455.05140	107.40199
16900.00000	107.52844	-458.31270	107.52844
16950.00000	107.66991	-461.66977	107.66991
17000.00000	107.62433	-465.00665	107.62433
17050.00000	107.80550	-467.51454	107.80550
17100.00000	107.82281	-469.71240	107.82281
17150.00000	108.04825	-473.68131	108.04825
17200.00000	108.15029	-476.75539	108.15029
17250.00000	108.21381	-480.36515	108.21381
17300.00000	108.36765	-483.39992	108.36765
17350.00000	108.32998	-486.31248	108.32998
17400.00000	108.51985	-489.59770	108.51985
17450.00000	108.53556	-493.32670	108.53556
17500.00000	108.67733	-496.43549	108.67733
17550.00000	108.75030	-499.67392	108.75030
17600.00000	108.93313	-502.48230	108.93313
17650.00000	108.97384	-506.65855	108.97384
17700.00000	109.02466	-510.11131	109.02466
17750.00000	109.22080	-512.92515	109.22080
17800.00000	109.16830	-516.98101	109.16830
17850.00000	109.24553	-520.01684	109.24553
17900.00000	109.26218	-523.53424	109.26218
17950.00000	109.37275	-527.40536	109.37275
18000.00000	109.38513	-531.48712	109.38513
18050.00000	109.53698	-534.56389	109.53698
18100.00000	109.47965	-538.67710	109.47965
18150.00000	109.47256	-541.71324	109.47256
18200.00000	109.39971	-545.92095	109.39971
18250.00000	109.43245	-548.77448	109.43245
18300.00000	109.46591	-552.34919	109.46591
18350.00000	109.43022	-555.89675	109.43022
18400.00000	109.33402	-559.62534	109.33402
18450.00000	109.23543	-564.24729	109.23543
18500.00000	109.20947	-567.59952	109.20947
18550.00000	109.10877	-570.58011	109.10877
18600.00000	109.10268	-574.44456	109.10268
18650.00000	108.89141	-577.56318	108.89141
18700.00000	108.78507	-581.33532	108.78507
18750.00000	108.72974	-584.55440	108.72974
18800.00000	108.72426	-587.22407	108.72426
18850.00000	108.47546	-590.59562	108.47546
18900.00000	108.35075	-593.61740	108.35075
18950.00000	108.25901	-597.18969	108.25901
19000.00000	107.97961	-599.66703	107.97961
19050.00000	108.01672	-602.56258	108.01672
19100.00000	107.83257	-605.27680	107.83257
19150.00000	107.85690	-607.93290	107.85690
19200.00000	107.71310	-610.23607	107.71310
19250.00000	107.59187	-614.03730	107.59187
19300.00000	107.44112	-616.05071	107.44112
19350.00000	107.35328	-618.75746	107.35328
19400.00000	107.22342	-621.30338	107.22342
19450.00000	107.23474	-623.47018	107.23474
19500.00000	107.06494	-626.84649	107.06494
19550.00000	107.01356	-629.41503	107.01356
19600.00000	107.01569	-632.71365	107.01569
19650.00000	106.85597	-634.77315	106.85597
19700.00000	106.67424	-637.70149	106.67424
19750.00000	106.60111	-639.80836	106.60111
19800.00000	106.61655	-643.41874	106.61655
19850.00000	106.53728	-645.92699	106.53728
19900.00000	106.39351	-649.36726	106.39351
19950.00000	106.28175	-652.07370	106.28175
20000.00000	106.19364	-654.87096	106.19364
20050.00000	106.09935	-657.73005	106.09935
20100.00000	105.90119	-660.70142	105.90119
20150.00000	105.83047	-662.64688	105.83047
20200.00000	105.67323	-666.22088	105.67323
20250.00000	105.49044	-668.86885	105.49044
20300.00000	105.26024	-671.71206	105.26024
20350.00000	105.16814	-674.68050	105.16814
20400.00000	104.93267	-676.65040	104.93267
20450.00000	104.66616	-679.46378	104.66616
20500.00000	104.53647	-682.36044	104.53647
20550.00000	104.09657	-684.00055	104.09657
20600.00000	103.95662	-686.26467	103.95662
20650.00000	103.72372	-688.46772	103.72372
20700.00000	103.41328	-690.46493	103.41328
20750.00000	103.23144	-692.24847	103.23144
20800.00000	102.92575	-693.66586	102.92575
20850.00000	102.74037	-695.31426	102.74037
20900.00000	102.44004	-696.64636	102.44004
20950.00000	102.18797	-697.31603	102.18797
21000.00000	101.96406	-698.14588	101.96406
21050.00000	101.90380	-698.63733	101.90380
21100.00000	101.70985	-699.03547	101.70985
21150.00000	101.65866	-699.82367	101.65866
21200.00000	101.59648	-700.00563	101.59648
21250.00000	101.53785	-701.61231	101.53785
21300.00000	101.55564	-701.83063	101.55564
21350.00000	101.52880	-702.41481	101.52880
21400.00000	101.51753	-703.70378	101.51753
21450.00000	101.56046	-704.80409	101.56046
21500.00000	101.58998	-706.46830	101.58998
21550.00000	101.53663	-707.27164	101.53663
21600.00000	101.64107	-708.87450	101.64107
21650.00000	101.63306	-710.60555	101.63306
21700.00000	101.62650	-711.84399	101.62650
21750.00000	101.64248	-713.49208	101.64248
21800.00000	101.66051	-715.21005	101.66051
21850.00000	101.58973	-716.63340	101.58973
21900.00000	101.59884	-718.45633	101.59884
21950.00000	101.57098	-719.59519	101.57098
22000.00000	101.60413	-721.07624	101.60413
22050.00000	101.56907	-722.31717	101.56907
22100.00000	101.54473	-724.13520	101.54473
22150.00000	101.51909	-725.27815	101.51909
22200.00000	101.61337	-727.00563	101.61337
22250.00000	101.51292	-728.20756	101.51292
22300.00000	101.45807	-729.72247	101.45807
22350.00000	101.58854	-731.29108	101.58854
22400.00000	101.62839	-732.83104	101.62839
22450.00000	101.57061	-734.36206	101.57061
22500.00000	101.54046	-735.05063	101.54046
22550.00000	101.50860	-736.92420	101.50860
22600.00000	101.60198	-739.34486	101.60198
22650.00000	101.54893	-741.07626	101.54893
22700.00000	101.62393	-742.20204	101.62393
22750.00000	101.60113	-742.36187	101.60113
