---ACOUSTIC CALIBRATION---
Filename: C:\Data\AZH DATA\AZH82\RightPrimary.calib
Date: 8/27/2019 4:49:26 PM
Format: 4
Probe Tube Correction File: C:\Data\Probe Tube Calibrations\50_ProbeTube.calib
Experiment VIs: 850
EPL_CFTS.exe V12.0.1 (2012)
DAQmx V9.6

Attenuation (dB): 40.000000
Min Freq (Hz): 50.000000
Max Freq (Hz): 49950.000000
Freq Step (Hz): 50.000000
Sample Rate (Hz): 100000.000000
[Smoothing]
Method=None
MA.Iterations=0
MA.Length=0
Loess.Length=0
Loess.Type=Linear
Loess.Robust=FALSE


Freq(Hz)	Mag(dB)	Phase(deg)	Unsmoothed(dB)

50.00000	109.27218	525.87550	109.27218
100.00000	76.30072	599.77474	76.30072
150.00000	69.83956	533.70303	69.83956
200.00000	81.51425	454.68545	81.51425
250.00000	87.53098	453.23312	87.53098
300.00000	70.53989	436.64631	70.53989
350.00000	83.32179	388.46170	83.32179
400.00000	86.22099	383.56807	86.22099
450.00000	87.09003	360.11132	87.09003
500.00000	89.28635	392.13016	89.28635
550.00000	90.94291	379.50351	90.94291
600.00000	94.55737	370.55031	94.55737
650.00000	97.10796	353.35006	97.10796
700.00000	99.03369	338.41663	99.03369
750.00000	100.83292	320.49177	100.83292
800.00000	101.02557	296.82495	101.02557
850.00000	100.71782	280.38284	100.71782
900.00000	99.17803	262.04355	99.17803
950.00000	97.26181	259.85227	97.26181
1000.00000	95.84010	261.20670	95.84010
1050.00000	93.63800	278.44200	93.63800
1100.00000	95.80017	299.63988	95.80017
1150.00000	98.64457	303.34869	98.64457
1200.00000	101.45510	302.19508	101.45510
1250.00000	103.15389	292.17783	103.15389
1300.00000	104.71904	287.53374	104.71904
1350.00000	105.94002	276.28814	105.94002
1400.00000	106.60446	268.90616	106.60446
1450.00000	107.71799	262.98189	107.71799
1500.00000	109.09236	254.74748	109.09236
1550.00000	109.61103	247.24412	109.61103
1600.00000	111.12838	236.80157	111.12838
1650.00000	111.97883	220.44602	111.97883
1700.00000	110.75608	210.39128	110.75608
1750.00000	110.43555	204.61623	110.43555
1800.00000	110.11441	200.49756	110.11441
1850.00000	110.26548	199.84761	110.26548
1900.00000	111.51292	196.12835	111.51292
1950.00000	112.14569	182.47381	112.14569
2000.00000	111.20485	170.73735	111.20485
2050.00000	110.05153	175.97290	110.05153
2100.00000	111.70705	174.87338	111.70705
2150.00000	112.43782	162.87546	112.43782
2200.00000	112.27554	153.20622	112.27554
2250.00000	111.74184	146.16284	111.74184
2300.00000	111.81097	141.02998	111.81097
2350.00000	111.61400	134.19778	111.61400
2400.00000	111.30688	128.26162	111.30688
2450.00000	111.07985	122.08892	111.07985
2500.00000	110.66673	116.85181	110.66673
2550.00000	110.24665	111.92207	110.24665
2600.00000	109.75477	107.34110	109.75477
2650.00000	109.18212	103.42996	109.18212
2700.00000	108.81021	99.49653	108.81021
2750.00000	108.05345	96.11331	108.05345
2800.00000	107.44755	93.55921	107.44755
2850.00000	106.84684	91.56427	106.84684
2900.00000	106.21336	89.16553	106.21336
2950.00000	105.65052	88.46332	105.65052
3000.00000	104.88245	87.34371	104.88245
3050.00000	104.06496	86.38012	104.06496
3100.00000	103.20050	88.03673	103.20050
3150.00000	101.96594	89.58333	101.96594
3200.00000	100.68427	96.40042	100.68427
3250.00000	99.98066	106.13671	99.98066
3300.00000	99.59284	119.93406	99.59284
3350.00000	100.24453	137.23507	100.24453
3400.00000	102.29818	152.21884	102.29818
3450.00000	104.85669	158.28342	104.85669
3500.00000	107.37205	158.72445	107.37205
3550.00000	109.30483	154.72015	109.30483
3600.00000	111.03005	150.66153	111.03005
3650.00000	112.44804	145.23119	112.44804
3700.00000	113.74336	140.43456	113.74336
3750.00000	115.04793	134.70119	115.04793
3800.00000	116.22566	128.07762	116.22566
3850.00000	117.21764	121.15981	117.21764
3900.00000	118.14345	114.29635	118.14345
3950.00000	119.04155	107.10171	119.04155
4000.00000	119.85858	99.48512	119.85858
4050.00000	120.62361	92.17865	120.62361
4100.00000	121.41691	84.64127	121.41691
4150.00000	122.40006	76.25414	122.40006
4200.00000	123.10249	66.08829	123.10249
4250.00000	123.76065	55.05343	123.76065
4300.00000	124.16304	42.98275	124.16304
4350.00000	124.25907	30.65983	124.25907
4400.00000	124.10218	19.16186	124.10218
4450.00000	123.77282	 8.68221	123.77282
4500.00000	123.39311	-1.09210	123.39311
4550.00000	122.94045	-9.90947	122.94045
4600.00000	122.44569	-18.19823	122.44569
4650.00000	122.01941	-26.14123	122.01941
4700.00000	121.52556	-34.49496	121.52556
4750.00000	120.90809	-43.03728	120.90809
4800.00000	120.08087	-51.69067	120.08087
4850.00000	118.97099	-59.33576	118.97099
4900.00000	117.64765	-65.14495	117.64765
4950.00000	116.25320	-68.16594	116.25320
5000.00000	115.04328	-68.66595	115.04328
5050.00000	113.91408	-68.64837	113.91408
5100.00000	112.74064	-64.54567	112.74064
5150.00000	112.69323	-59.33123	112.69323
5200.00000	111.90807	-54.45054	111.90807
5250.00000	113.45426	-42.35843	113.45426
5300.00000	115.70528	-51.22371	115.70528
5350.00000	115.80455	-63.80611	115.80455
5400.00000	115.26937	-71.02656	115.26937
5450.00000	114.74527	-75.29702	114.74527
5500.00000	114.34252	-78.46513	114.34252
5550.00000	114.02378	-81.05244	114.02378
5600.00000	113.78489	-83.54118	113.78489
5650.00000	113.57081	-85.84508	113.57081
5700.00000	113.36982	-88.38004	113.36982
5750.00000	113.22786	-90.71316	113.22786
5800.00000	113.04870	-93.10549	113.04870
5850.00000	112.92286	-95.60249	112.92286
5900.00000	112.79990	-97.91775	112.79990
5950.00000	112.68102	-100.26404	112.68102
6000.00000	112.58314	-102.40379	112.58314
6050.00000	112.45992	-104.63141	112.45992
6100.00000	112.41435	-106.93675	112.41435
6150.00000	112.35455	-109.28436	112.35455
6200.00000	112.31869	-111.94315	112.31869
6250.00000	112.28990	-114.57883	112.28990
6300.00000	112.21792	-117.41418	112.21792
6350.00000	112.13511	-120.14676	112.13511
6400.00000	112.06580	-122.88769	112.06580
6450.00000	111.98764	-125.73710	111.98764
6500.00000	111.90332	-128.48217	111.90332
6550.00000	111.80977	-130.99899	111.80977
6600.00000	111.74103	-133.68830	111.74103
6650.00000	111.66617	-136.32939	111.66617
6700.00000	111.61078	-139.03395	111.61078
6750.00000	111.53430	-141.60028	111.53430
6800.00000	111.48029	-144.16402	111.48029
6850.00000	111.43464	-146.80110	111.43464
6900.00000	111.40948	-149.60292	111.40948
6950.00000	111.35044	-152.11211	111.35044
7000.00000	111.33015	-154.73674	111.33015
7050.00000	111.28738	-157.61260	111.28738
7100.00000	111.29377	-160.65206	111.29377
7150.00000	111.26481	-163.71209	111.26481
7200.00000	111.23228	-166.71881	111.23228
7250.00000	111.17308	-169.94200	111.17308
7300.00000	111.14392	-173.06013	111.14392
7350.00000	111.08872	-176.23362	111.08872
7400.00000	111.04488	-179.59515	111.04488
7450.00000	110.95130	-183.01136	110.95130
7500.00000	110.86999	-186.80157	110.86999
7550.00000	110.79391	-189.89283	110.79391
7600.00000	110.67218	-193.25460	110.67218
7650.00000	110.52920	-196.75139	110.52920
7700.00000	110.46445	-200.09343	110.46445
7750.00000	110.29140	-203.60201	110.29140
7800.00000	110.12334	-206.90330	110.12334
7850.00000	109.99268	-210.17298	109.99268
7900.00000	109.84724	-213.39154	109.84724
7950.00000	109.70874	-216.75949	109.70874
8000.00000	109.51920	-220.09526	109.51920
8050.00000	109.32120	-223.71155	109.32120
8100.00000	109.15940	-226.32155	109.15940
8150.00000	108.91538	-229.45291	108.91538
8200.00000	108.70906	-232.39682	108.70906
8250.00000	108.48109	-235.72204	108.48109
8300.00000	108.24710	-238.58038	108.24710
8350.00000	107.98009	-241.46503	107.98009
8400.00000	107.72875	-244.69370	107.72875
8450.00000	107.44283	-247.70723	107.44283
8500.00000	107.17248	-250.96501	107.17248
8550.00000	106.94711	-253.66641	106.94711
8600.00000	106.68013	-257.08115	106.68013
8650.00000	106.36565	-259.96059	106.36565
8700.00000	106.16912	-263.19367	106.16912
8750.00000	105.81172	-265.22440	105.81172
8800.00000	105.56087	-268.21812	105.56087
8850.00000	105.19545	-270.67877	105.19545
8900.00000	104.89953	-272.90037	104.89953
8950.00000	104.57070	-275.09335	104.57070
9000.00000	104.13858	-277.46725	104.13858
9050.00000	103.75869	-279.92708	103.75869
9100.00000	103.41965	-282.23004	103.41965
9150.00000	103.09128	-284.38231	103.09128
9200.00000	102.84010	-286.85022	102.84010
9250.00000	102.51832	-289.07107	102.51832
9300.00000	102.31709	-290.79856	102.31709
9350.00000	102.13735	-292.83533	102.13735
9400.00000	101.89796	-294.20652	101.89796
9450.00000	101.71310	-295.27645	101.71310
9500.00000	101.53092	-295.46927	101.53092
9550.00000	101.51163	-295.50257	101.51163
9600.00000	101.39776	-296.68749	101.39776
9650.00000	101.17675	-298.52732	101.17675
9700.00000	100.93951	-299.43370	100.93951
9750.00000	100.76342	-302.14534	100.76342
9800.00000	100.54449	-303.45679	100.54449
9850.00000	100.41648	-304.92531	100.41648
9900.00000	100.12703	-307.08230	100.12703
9950.00000	100.03521	-308.50686	100.03521
10000.00000	99.96636	-310.79628	99.96636
10050.00000	99.85118	-311.79722	99.85118
10100.00000	99.68123	-313.16176	99.68123
10150.00000	99.42444	-315.14983	99.42444
10200.00000	99.26360	-316.67519	99.26360
10250.00000	99.01192	-318.67053	99.01192
10300.00000	98.92643	-320.50906	98.92643
10350.00000	98.68915	-322.77982	98.68915
10400.00000	98.46444	-325.57787	98.46444
10450.00000	98.41929	-328.48790	98.41929
10500.00000	98.37052	-331.04992	98.37052
10550.00000	98.30066	-333.23182	98.30066
10600.00000	98.17339	-335.24208	98.17339
10650.00000	98.02977	-336.63647	98.02977
10700.00000	97.92721	-339.20285	97.92721
10750.00000	97.76553	-341.42259	97.76553
10800.00000	97.49880	-343.48625	97.49880
10850.00000	97.22254	-346.73778	97.22254
10900.00000	97.00850	-348.81203	97.00850
10950.00000	96.77374	-351.18007	96.77374
11000.00000	96.53646	-353.60087	96.53646
11050.00000	96.15654	-355.89670	96.15654
11100.00000	95.88018	-358.31273	95.88018
11150.00000	95.49198	-360.07908	95.49198
11200.00000	95.21994	-361.86803	95.21994
11250.00000	94.81197	-363.82693	94.81197
11300.00000	94.35722	-365.97042	94.35722
11350.00000	93.92748	-368.06766	93.92748
11400.00000	93.38852	-369.69567	93.38852
11450.00000	92.95753	-371.43376	92.95753
11500.00000	92.64927	-372.16687	92.64927
11550.00000	92.13094	-372.64431	92.13094
11600.00000	91.88197	-373.98067	91.88197
11650.00000	91.41479	-373.21010	91.41479
11700.00000	91.05868	-373.45207	91.05868
11750.00000	90.68163	-374.20965	90.68163
11800.00000	90.32996	-373.89609	90.32996
11850.00000	90.04987	-372.37796	90.04987
11900.00000	89.54309	-372.20387	89.54309
11950.00000	89.37375	-371.00299	89.37375
12000.00000	89.04535	-369.79374	89.04535
12050.00000	88.85025	-368.50122	88.85025
12100.00000	88.75187	-368.77344	88.75187
12150.00000	88.65752	-368.30574	88.65752
12200.00000	88.57042	-368.73861	88.57042
12250.00000	88.48027	-367.10816	88.48027
12300.00000	89.65853	-367.07886	89.65853
12350.00000	88.52696	-366.28836	88.52696
12400.00000	88.50433	-364.71530	88.50433
12450.00000	88.48176	-364.14839	88.48176
12500.00000	88.39211	-363.83400	88.39211
12550.00000	88.44141	-364.33989	88.44141
12600.00000	88.36292	-364.71658	88.36292
12650.00000	88.53500	-365.09116	88.53500
12700.00000	88.61345	-365.62713	88.61345
12750.00000	88.61682	-366.72077	88.61682
12800.00000	88.68946	-366.71213	88.68946
12850.00000	88.44626	-366.67436	88.44626
12900.00000	88.51782	-367.76222	88.51782
12950.00000	88.50734	-368.22970	88.50734
13000.00000	88.43870	-369.73486	88.43870
13050.00000	88.48630	-369.50903	88.48630
13100.00000	88.41228	-370.65074	88.41228
13150.00000	88.46562	-371.58586	88.46562
13200.00000	88.48128	-371.23288	88.48128
13250.00000	88.43202	-371.93246	88.43202
13300.00000	88.35162	-370.20205	88.35162
13350.00000	88.31931	-370.78564	88.31931
13400.00000	88.44087	-371.69498	88.44087
13450.00000	88.21886	-371.03380	88.21886
13500.00000	88.47110	-370.97412	88.47110
13550.00000	88.27909	-371.60416	88.27909
13600.00000	88.34451	-370.95808	88.34451
13650.00000	88.43133	-371.19391	88.43133
13700.00000	88.27824	-371.88631	88.27824
13750.00000	88.29951	-371.36019	88.29951
13800.00000	88.19295	-374.20638	88.19295
13850.00000	88.25285	-374.86310	88.25285
13900.00000	88.31305	-374.36043	88.31305
13950.00000	88.50277	-374.50744	88.50277
14000.00000	88.77645	-372.70705	88.77645
14050.00000	88.81648	-373.44218	88.81648
14100.00000	88.76273	-373.12458	88.76273
14150.00000	88.88816	-374.17716	88.88816
14200.00000	89.11030	-373.65080	89.11030
14250.00000	89.57788	-372.34837	89.57788
14300.00000	89.64894	-372.78741	89.64894
14350.00000	89.78662	-371.29034	89.78662
14400.00000	89.54965	-372.07405	89.54965
14450.00000	89.58104	-371.06590	89.58104
14500.00000	89.60770	-372.82506	89.60770
14550.00000	89.84501	-373.01678	89.84501
14600.00000	90.00314	-374.21237	90.00314
14650.00000	90.37449	-372.03748	90.37449
14700.00000	90.31254	-375.80850	90.31254
14750.00000	90.75887	-375.38389	90.75887
14800.00000	90.88552	-374.07983	90.88552
14850.00000	91.16659	-373.96974	91.16659
14900.00000	91.50490	-374.38180	91.50490
14950.00000	91.71396	-374.60928	91.71396
15000.00000	92.07251	-374.29653	92.07251
15050.00000	92.25585	-373.46064	92.25585
15100.00000	92.58215	-373.07484	92.58215
15150.00000	93.04104	-373.77743	93.04104
15200.00000	93.19231	-372.97632	93.19231
15250.00000	93.42949	-374.03663	93.42949
15300.00000	94.06538	-375.43769	94.06538
15350.00000	94.43098	-376.95695	94.43098
15400.00000	94.74630	-376.15248	94.74630
15450.00000	95.14852	-377.48082	95.14852
15500.00000	95.68184	-379.04899	95.68184
15550.00000	96.20371	-380.38250	96.20371
15600.00000	96.59488	-382.07862	96.59488
15650.00000	97.14767	-382.46867	97.14767
15700.00000	97.47268	-386.03877	97.47268
15750.00000	98.11073	-387.92128	98.11073
15800.00000	98.50592	-389.52776	98.50592
15850.00000	98.93647	-392.20854	98.93647
15900.00000	99.16158	-395.39673	99.16158
15950.00000	99.62623	-398.76099	99.62623
16000.00000	100.02862	-401.67854	100.02862
16050.00000	100.40473	-404.67781	100.40473
16100.00000	100.48816	-408.42347	100.48816
16150.00000	100.71382	-411.47153	100.71382
16200.00000	100.94441	-415.40461	100.94441
16250.00000	101.17010	-418.11662	101.17010
16300.00000	101.47746	-421.34109	101.47746
16350.00000	101.59472	-424.29471	101.59472
16400.00000	101.71632	-426.81489	101.71632
16450.00000	101.86611	-429.46291	101.86611
16500.00000	101.99439	-431.82990	101.99439
16550.00000	102.17878	-435.57590	102.17878
16600.00000	102.39781	-438.02910	102.39781
16650.00000	102.51163	-440.66012	102.51163
16700.00000	102.69411	-443.20679	102.69411
16750.00000	102.72928	-446.17544	102.72928
16800.00000	102.91441	-449.10331	102.91441
16850.00000	103.12069	-451.85019	103.12069
16900.00000	103.34628	-454.94180	103.34628
16950.00000	103.45422	-457.38074	103.45422
17000.00000	103.48435	-460.54080	103.48435
17050.00000	103.68339	-462.63169	103.68339
17100.00000	103.72538	-464.28622	103.72538
17150.00000	103.96640	-468.17111	103.96640
17200.00000	104.12114	-470.85860	104.12114
17250.00000	104.16569	-474.12225	104.16569
17300.00000	104.37502	-476.82855	104.37502
17350.00000	104.33825	-479.23554	104.33825
17400.00000	104.54695	-482.23626	104.54695
17450.00000	104.58678	-485.56762	104.58678
17500.00000	104.73101	-488.17246	104.73101
17550.00000	104.84197	-491.02482	104.84197
17600.00000	105.04226	-493.57635	105.04226
17650.00000	105.08813	-497.12859	105.08813
17700.00000	105.16850	-499.74811	105.16850
17750.00000	105.37300	-502.55774	105.37300
17800.00000	105.36990	-505.88379	105.36990
17850.00000	105.47595	-508.60245	105.47595
17900.00000	105.57555	-511.58920	105.57555
17950.00000	105.68778	-514.90088	105.68778
18000.00000	105.78387	-518.44791	105.78387
18050.00000	105.98159	-520.92240	105.98159
18100.00000	105.99002	-524.61252	105.99002
18150.00000	106.03887	-527.22582	106.03887
18200.00000	106.03716	-530.88346	106.03716
18250.00000	106.18082	-533.24216	106.18082
18300.00000	106.25567	-536.32770	106.25567
18350.00000	106.33311	-539.48384	106.33311
18400.00000	106.33420	-542.89709	106.33420
18450.00000	106.33302	-547.16302	106.33302
18500.00000	106.39356	-550.27341	106.39356
18550.00000	106.41116	-552.89916	106.41116
18600.00000	106.52550	-556.56054	106.52550
18650.00000	106.42407	-559.56559	106.42407
18700.00000	106.41284	-563.26736	106.41284
18750.00000	106.48512	-566.32464	106.48512
18800.00000	106.58498	-568.84601	106.58498
18850.00000	106.43521	-572.42560	106.43521
18900.00000	106.46963	-575.55793	106.46963
18950.00000	106.44258	-579.16566	106.44258
19000.00000	106.26978	-581.77468	106.26978
19050.00000	106.37431	-585.04287	106.37431
19100.00000	106.30175	-587.88243	106.30175
19150.00000	106.39282	-590.87630	106.39282
19200.00000	106.36484	-593.69635	106.36484
19250.00000	106.29958	-597.67461	106.29958
19300.00000	106.19886	-600.04833	106.19886
19350.00000	106.15841	-603.16675	106.15841
19400.00000	106.08710	-606.09853	106.08710
19450.00000	106.16060	-608.45051	106.16060
19500.00000	105.98926	-612.16035	105.98926
19550.00000	105.99354	-615.07750	105.99354
19600.00000	106.01535	-618.65099	106.01535
19650.00000	105.89638	-621.13642	105.89638
19700.00000	105.76798	-624.17318	105.76798
19750.00000	105.69565	-626.67600	105.69565
19800.00000	105.72530	-630.43155	105.72530
19850.00000	105.67760	-633.02958	105.67760
19900.00000	105.54847	-636.77146	105.54847
19950.00000	105.44824	-639.59555	105.44824
20000.00000	105.36289	-642.70997	105.36289
20050.00000	105.30017	-645.66645	105.30017
20100.00000	105.11214	-648.54508	105.11214
20150.00000	105.06536	-650.91287	105.06536
20200.00000	104.91907	-654.43150	104.91907
20250.00000	104.72827	-657.29291	104.72827
20300.00000	104.52198	-660.12117	104.52198
20350.00000	104.43447	-663.05555	104.43447
20400.00000	104.22830	-665.12342	104.22830
20450.00000	103.97577	-667.84609	103.97577
20500.00000	103.85531	-670.73835	103.85531
20550.00000	103.43352	-672.48465	103.43352
20600.00000	103.31722	-674.45971	103.31722
20650.00000	103.12234	-676.69336	103.12234
20700.00000	102.88288	-678.51586	102.88288
20750.00000	102.72017	-680.24071	102.72017
20800.00000	102.47463	-681.46450	102.47463
20850.00000	102.34364	-683.19261	102.34364
20900.00000	102.11157	-684.38126	102.11157
20950.00000	101.93183	-685.06230	101.93183
21000.00000	101.81116	-685.93178	101.81116
21050.00000	101.82776	-686.50313	101.82776
21100.00000	101.71632	-687.13537	101.71632
21150.00000	101.76200	-688.20419	101.76200
21200.00000	101.79938	-688.69074	101.79938
21250.00000	101.82018	-690.89459	101.82018
21300.00000	101.92216	-691.51729	101.92216
21350.00000	101.96167	-692.73208	101.96167
21400.00000	102.00430	-694.66765	102.00430
21450.00000	102.08659	-696.42155	102.08659
21500.00000	102.14578	-698.48364	102.14578
21550.00000	102.13051	-700.14354	102.13051
21600.00000	102.24245	-702.41983	102.24245
21650.00000	102.23056	-704.60968	102.23056
21700.00000	102.22995	-706.34196	102.22995
21750.00000	102.24285	-708.75390	102.24285
21800.00000	102.22106	-710.80521	102.22106
21850.00000	102.14360	-712.78315	102.14360
21900.00000	102.15742	-714.87568	102.15742
21950.00000	102.11582	-716.76335	102.11582
22000.00000	102.14991	-718.70216	102.14991
22050.00000	102.08735	-720.11185	102.08735
22100.00000	102.04271	-722.48884	102.04271
22150.00000	102.00531	-724.03379	102.00531
22200.00000	102.05645	-726.07163	102.05645
22250.00000	101.97465	-727.27285	101.97465
22300.00000	101.83815	-729.50330	101.83815
22350.00000	101.97123	-731.49136	101.97123
22400.00000	101.97415	-733.30862	101.97415
22450.00000	101.88469	-735.09701	101.88469
22500.00000	101.86164	-736.08958	101.86164
22550.00000	101.86835	-738.66387	101.86835
22600.00000	101.82917	-740.72011	101.82917
22650.00000	101.81066	-742.90691	101.81066
22700.00000	101.78040	-744.35423	101.78040
22750.00000	101.75773	-745.01946	101.75773
22800.00000	101.76410	-748.60055	101.76410
