---ACOUSTIC CALIBRATION---
Filename: C:\Data\AZH DATA\AZH41\RightSecondary.calib
Date: 8/27/2019 1:48:49 PM
Format: 4
Probe Tube Correction File: C:\Data\Probe Tube Calibrations\50_ProbeTube.calib
Experiment VIs: 850
EPL_CFTS.exe V12.0.1 (2012)
DAQmx V9.6

Attenuation (dB): 40.000000
Min Freq (Hz): 50.000000
Max Freq (Hz): 49950.000000
Freq Step (Hz): 50.000000
Sample Rate (Hz): 100000.000000
[Smoothing]
Method=None
MA.Iterations=0
MA.Length=0
Loess.Length=0
Loess.Type=Linear
Loess.Robust=FALSE


Freq(Hz)	Mag(dB)	Phase(deg)	Unsmoothed(dB)

50.00000	98.45279	616.77289	98.45279
100.00000	79.16688	569.24931	79.16688
150.00000	78.50864	518.40347	78.50864
200.00000	82.83548	417.24322	82.83548
250.00000	91.08100	418.17869	91.08100
300.00000	85.62773	336.73456	85.62773
350.00000	84.50622	346.01903	84.50622
400.00000	87.34902	312.85943	87.34902
450.00000	86.26592	321.66098	86.26592
500.00000	83.91680	309.84417	83.91680
550.00000	89.06327	321.13939	89.06327
600.00000	90.80348	314.35668	90.80348
650.00000	93.17881	324.98777	93.17881
700.00000	95.96993	319.48940	95.96993
750.00000	97.70280	315.86474	97.70280
800.00000	100.42476	305.72420	100.42476
850.00000	102.94493	297.59349	102.94493
900.00000	104.57956	278.80796	104.57956
950.00000	105.80511	262.76840	105.80511
1000.00000	105.73015	244.88259	105.73015
1050.00000	105.22726	236.64002	105.22726
1100.00000	105.53605	225.03263	105.53605
1150.00000	104.76467	214.82751	104.76467
1200.00000	104.59753	212.34741	104.59753
1250.00000	104.57103	201.23120	104.57103
1300.00000	103.64081	196.10768	103.64081
1350.00000	103.01691	190.69034	103.01691
1400.00000	102.16169	191.72123	102.16169
1450.00000	102.49528	191.69149	102.49528
1500.00000	102.92114	191.11257	102.92114
1550.00000	102.69702	188.53467	102.69702
1600.00000	103.35729	186.20004	103.35729
1650.00000	104.31928	177.27033	104.31928
1700.00000	103.08242	173.15467	103.08242
1750.00000	103.06835	171.40387	103.06835
1800.00000	102.71774	168.06510	102.71774
1850.00000	102.55300	171.14517	102.55300
1900.00000	103.65846	172.02998	103.65846
1950.00000	104.46285	163.30406	104.46285
2000.00000	104.22539	153.96049	104.22539
2050.00000	103.31682	150.93629	103.31682
2100.00000	103.40655	151.45165	103.40655
2150.00000	103.05624	145.92011	103.05624
2200.00000	102.60770	142.52999	102.60770
2250.00000	101.67182	141.56608	101.67182
2300.00000	101.66214	142.92171	101.66214
2350.00000	101.39143	143.93535	101.39143
2400.00000	101.48491	143.88260	101.48491
2450.00000	101.30377	141.66541	101.30377
2500.00000	101.06700	144.14718	101.06700
2550.00000	100.79581	146.54931	100.79581
2600.00000	101.11408	154.03398	101.11408
2650.00000	102.52081	158.39436	102.52081
2700.00000	104.17620	155.30010	104.17620
2750.00000	105.38891	146.40136	105.38891
2800.00000	105.62669	136.67290	105.62669
2850.00000	105.38201	129.45792	105.38201
2900.00000	105.03217	124.18346	105.03217
2950.00000	104.67175	120.69647	104.67175
3000.00000	104.35619	117.18738	104.35619
3050.00000	103.92019	114.86839	103.92019
3100.00000	103.71754	112.59300	103.71754
3150.00000	103.28934	109.38032	103.28934
3200.00000	102.70250	106.87586	102.70250
3250.00000	101.92358	105.53260	101.92358
3300.00000	100.97711	105.05248	100.97711
3350.00000	99.85099	108.07772	99.85099
3400.00000	99.13063	117.28733	99.13063
3450.00000	99.12533	125.70053	99.12533
3500.00000	99.72963	132.16992	99.72963
3550.00000	100.25854	135.57870	100.25854
3600.00000	100.68342	137.63590	100.68342
3650.00000	100.53436	141.13178	100.53436
3700.00000	100.46234	150.76654	100.46234
3750.00000	101.57157	162.89068	101.57157
3800.00000	103.51448	170.22479	103.51448
3850.00000	105.62562	172.46582	105.62562
3900.00000	107.56563	170.96304	107.56563
3950.00000	109.21202	167.57547	109.21202
4000.00000	110.56667	162.56155	110.56667
4050.00000	111.61753	157.56135	111.61753
4100.00000	112.49005	153.28824	112.49005
4150.00000	113.46775	149.60222	113.46775
4200.00000	114.17807	145.92802	114.17807
4250.00000	115.04038	143.07758	115.04038
4300.00000	115.97091	140.57709	115.97091
4350.00000	117.01135	137.84525	117.01135
4400.00000	118.18309	134.72576	118.18309
4450.00000	119.46490	130.74734	119.46490
4500.00000	120.83345	125.61593	120.83345
4550.00000	122.23044	119.02399	122.23044
4600.00000	123.58771	111.00996	123.58771
4650.00000	124.94583	101.51272	124.94583
4700.00000	126.16780	89.94891	126.16780
4750.00000	127.15721	76.54834	127.15721
4800.00000	127.81424	61.58546	127.81424
4850.00000	128.00270	46.04056	128.00270
4900.00000	127.72776	30.99557	127.72776
4950.00000	127.03526	17.30924	127.03526
5000.00000	125.95381	 6.12839	125.95381
5050.00000	124.88759	-1.53030	124.88759
5100.00000	123.58862	-10.35191	123.58862
5150.00000	121.12724	-10.80360	121.12724
5200.00000	120.63782	 8.52342	120.63782
5250.00000	123.78546	 9.82510	123.78546
5300.00000	125.17628	-4.27115	125.17628
5350.00000	125.30781	-17.31331	125.30781
5400.00000	124.98010	-27.75392	124.98010
5450.00000	124.52170	-36.08697	124.52170
5500.00000	124.03655	-43.26064	124.03655
5550.00000	123.56394	-49.48477	123.56394
5600.00000	123.09935	-55.20252	123.09935
5650.00000	122.66006	-60.43464	122.66006
5700.00000	122.21028	-65.53408	122.21028
5750.00000	121.79036	-70.08679	121.79036
5800.00000	121.36249	-74.52675	121.36249
5850.00000	120.96196	-78.73217	120.96196
5900.00000	120.58517	-82.72643	120.58517
5950.00000	120.21184	-86.60414	120.21184
6000.00000	119.86220	-90.19741	119.86220
6050.00000	119.49823	-93.87912	119.49823
6100.00000	119.15942	-97.45431	119.15942
6150.00000	118.82330	-100.90271	118.82330
6200.00000	118.47993	-104.31673	118.47993
6250.00000	118.16577	-107.60645	118.16577
6300.00000	117.84951	-110.84749	117.84951
6350.00000	117.51574	-114.09288	117.51574
6400.00000	117.18379	-117.10448	117.18379
6450.00000	116.88806	-120.11829	116.88806
6500.00000	116.55105	-123.04263	116.55105
6550.00000	116.20773	-125.87349	116.20773
6600.00000	115.87806	-128.52895	115.87806
6650.00000	115.55428	-130.99824	115.55428
6700.00000	115.23378	-133.53219	115.23378
6750.00000	114.92175	-135.76205	114.92175
6800.00000	114.62548	-137.92599	114.62548
6850.00000	114.33937	-139.97606	114.33937
6900.00000	114.07379	-141.88629	114.07379
6950.00000	113.81163	-143.81308	113.81163
7000.00000	113.58313	-145.76773	113.58313
7050.00000	113.33273	-147.76067	113.33273
7100.00000	113.11232	-149.61068	113.11232
7150.00000	112.89207	-151.11823	112.89207
7200.00000	112.67792	-152.60328	112.67792
7250.00000	112.47743	-154.00323	112.47743
7300.00000	112.34188	-155.25291	112.34188
7350.00000	112.19725	-156.31219	112.19725
7400.00000	112.07043	-157.60093	112.07043
7450.00000	112.04994	-158.80648	112.04994
7500.00000	112.00902	-160.15162	112.00902
7550.00000	112.02293	-161.29441	112.02293
7600.00000	112.05676	-162.78338	112.05676
7650.00000	112.11682	-164.50123	112.11682
7700.00000	112.23279	-166.53678	112.23279
7750.00000	112.28779	-168.91596	112.28779
7800.00000	112.36037	-171.46335	112.36037
7850.00000	112.41045	-174.13400	112.41045
7900.00000	112.46512	-176.87226	112.46512
7950.00000	112.48470	-179.98923	112.48470
8000.00000	112.49154	-183.23306	112.49154
8050.00000	112.47208	-186.75126	112.47208
8100.00000	112.41810	-189.72384	112.41810
8150.00000	112.31090	-192.89052	112.31090
8200.00000	112.21295	-195.91903	112.21295
8250.00000	112.08984	-199.35870	112.08984
8300.00000	111.98397	-202.52501	111.98397
8350.00000	111.83512	-205.50092	111.83512
8400.00000	111.66385	-208.96605	111.66385
8450.00000	111.42215	-211.90786	111.42215
8500.00000	111.20451	-214.79221	111.20451
8550.00000	111.01426	-217.41817	111.01426
8600.00000	110.78420	-220.28136	110.78420
8650.00000	110.52502	-222.76660	110.52502
8700.00000	110.31891	-225.82700	110.31891
8750.00000	110.03965	-227.36440	110.03965
8800.00000	109.85729	-230.17838	109.85729
8850.00000	109.61231	-232.71367	109.61231
8900.00000	109.43865	-234.84392	109.43865
8950.00000	109.27067	-237.39965	109.27067
9000.00000	109.03347	-239.65795	109.03347
9050.00000	108.91622	-242.02796	108.91622
9100.00000	108.78352	-244.09461	108.78352
9150.00000	108.67258	-246.14038	108.67258
9200.00000	108.59327	-248.25144	108.59327
9250.00000	108.42299	-250.23810	108.42299
9300.00000	108.32081	-252.23633	108.32081
9350.00000	108.24343	-254.37656	108.24343
9400.00000	108.02263	-256.15891	108.02263
9450.00000	107.90656	-258.25453	107.90656
9500.00000	107.80858	-260.18299	107.80858
9550.00000	107.68286	-262.27782	107.68286
9600.00000	107.65003	-264.68730	107.65003
9650.00000	107.58690	-267.29146	107.58690
9700.00000	107.52336	-269.09140	107.52336
9750.00000	107.52565	-271.95820	107.52565
9800.00000	107.41251	-273.56086	107.41251
9850.00000	107.32211	-275.09330	107.32211
9900.00000	107.03991	-277.15856	107.03991
9950.00000	106.86602	-278.39520	106.86602
10000.00000	106.68409	-280.77427	106.68409
10050.00000	106.42434	-282.91373	106.42434
10100.00000	106.18671	-285.05080	106.18671
10150.00000	105.91355	-288.12946	105.91355
10200.00000	105.78437	-290.73115	105.78437
10250.00000	105.64074	-293.61561	105.64074
10300.00000	105.64724	-296.11042	105.64724
10350.00000	105.56233	-298.06434	105.56233
10400.00000	105.43471	-300.20717	105.43471
10450.00000	105.41721	-302.34126	105.41721
10500.00000	105.36152	-304.13610	105.36152
10550.00000	105.22133	-306.33316	105.22133
10600.00000	105.04296	-308.45724	105.04296
10650.00000	104.84455	-310.57928	104.84455
10700.00000	104.71279	-314.01881	104.71279
10750.00000	104.63527	-317.04187	104.63527
10800.00000	104.50243	-319.65707	104.50243
10850.00000	104.40283	-323.26058	104.40283
10900.00000	104.31333	-325.61433	104.31333
10950.00000	104.16493	-327.64757	104.16493
11000.00000	103.96006	-330.02491	103.96006
11050.00000	103.57591	-332.32386	103.57591
11100.00000	103.25382	-335.41924	103.25382
11150.00000	102.85654	-337.95922	102.85654
11200.00000	102.59437	-340.73838	102.59437
11250.00000	102.21632	-343.89627	102.21632
11300.00000	101.86969	-346.52153	101.86969
11350.00000	101.58730	-348.32410	101.58730
11400.00000	101.18555	-350.13421	101.18555
11450.00000	100.86697	-352.15949	100.86697
11500.00000	100.60869	-353.00749	100.60869
11550.00000	100.11475	-354.28147	100.11475
11600.00000	99.83927	-356.50711	99.83927
11650.00000	99.44126	-357.42833	99.44126
11700.00000	99.20071	-359.24626	99.20071
11750.00000	99.00534	-360.81734	99.00534
11800.00000	98.79448	-362.54017	98.79448
11850.00000	98.63636	-362.72482	98.63636
11900.00000	98.19570	-364.30940	98.19570
11950.00000	97.87999	-365.00739	97.87999
12000.00000	97.42570	-365.72282	97.42570
12050.00000	96.93431	-366.81787	96.93431
12100.00000	96.58944	-369.53145	96.58944
12150.00000	96.18728	-371.34024	96.18728
12200.00000	95.92189	-373.20915	95.92189
12250.00000	95.65884	-373.96473	95.65884
12300.00000	96.45978	-374.83406	96.45978
12350.00000	94.98354	-374.92258	94.98354
12400.00000	94.53642	-373.50059	94.53642
12450.00000	94.04468	-372.89322	94.04468
12500.00000	93.56622	-373.20764	93.56622
12550.00000	93.08540	-372.96578	93.08540
12600.00000	92.61731	-373.37679	92.61731
12650.00000	92.48962	-372.52093	92.48962
12700.00000	92.15726	-371.78172	92.15726
12750.00000	91.89529	-370.66403	91.89529
12800.00000	91.65833	-368.04650	91.65833
12850.00000	91.13807	-366.39829	91.13807
12900.00000	90.87662	-365.15862	90.87662
12950.00000	90.69132	-363.56335	90.69132
13000.00000	90.55762	-363.10703	90.55762
13050.00000	90.66780	-361.03930	90.66780
13100.00000	90.61234	-359.74015	90.61234
13150.00000	90.77167	-358.99321	90.77167
13200.00000	90.71552	-355.57213	90.71552
13250.00000	90.68077	-354.13454	90.68077
13300.00000	90.50048	-350.79578	90.50048
13350.00000	90.41809	-350.20909	90.41809
13400.00000	90.56124	-349.89095	90.56124
13450.00000	90.53471	-348.15159	90.53471
13500.00000	90.91475	-346.10064	90.91475
13550.00000	90.90284	-345.24566	90.90284
13600.00000	91.20297	-343.40531	91.20297
13650.00000	91.40974	-341.23993	91.40974
13700.00000	91.41903	-339.66274	91.41903
13750.00000	91.51630	-338.57722	91.51630
13800.00000	91.62786	-339.39370	91.62786
13850.00000	91.77790	-339.20223	91.77790
13900.00000	91.89010	-338.60925	91.89010
13950.00000	92.33070	-338.24969	92.33070
14000.00000	92.81026	-336.12223	92.81026
14050.00000	93.23760	-335.85521	93.23760
14100.00000	93.39387	-334.66848	93.39387
14150.00000	93.86643	-334.16854	93.86643
14200.00000	94.28389	-333.34775	94.28389
14250.00000	94.94213	-331.53729	94.94213
14300.00000	95.23505	-331.73679	95.23505
14350.00000	95.61248	-329.97011	95.61248
14400.00000	95.60406	-330.47257	95.60406
14450.00000	95.98749	-329.89996	95.98749
14500.00000	96.44140	-331.44395	96.44140
14550.00000	97.01313	-331.64804	97.01313
14600.00000	97.45132	-333.40937	97.45132
14650.00000	98.19082	-332.10528	98.19082
14700.00000	98.65815	-336.36179	98.65815
14750.00000	99.14934	-337.01287	99.14934
14800.00000	99.51697	-337.60192	99.51697
14850.00000	100.14622	-338.97115	100.14622
14900.00000	100.69336	-340.82376	100.69336
14950.00000	101.18628	-343.04658	101.18628
15000.00000	101.68255	-345.37035	101.68255
15050.00000	101.97701	-346.71854	101.97701
15100.00000	102.44886	-348.86959	102.44886
15150.00000	103.04500	-352.14018	103.04500
15200.00000	103.36211	-353.23774	103.36211
15250.00000	103.59972	-356.37355	103.59972
15300.00000	104.14053	-359.43922	104.14053
15350.00000	104.41105	-363.13890	104.41105
15400.00000	104.67753	-365.25077	104.67753
15450.00000	104.95120	-368.77802	104.95120
15500.00000	105.35610	-372.03262	105.35610
15550.00000	105.63394	-375.76507	105.63394
15600.00000	105.87201	-379.55180	105.87201
15650.00000	106.26351	-380.98157	106.26351
15700.00000	106.28833	-385.04903	106.28833
15750.00000	106.55862	-387.70176	106.55862
15800.00000	106.68942	-389.85503	106.68942
15850.00000	106.80351	-392.80786	106.80351
15900.00000	106.85057	-396.13010	106.85057
15950.00000	107.09790	-398.89644	107.09790
16000.00000	107.22375	-401.08922	107.22375
16050.00000	107.40202	-403.62608	107.40202
16100.00000	107.38169	-406.73451	107.38169
16150.00000	107.51356	-409.23492	107.51356
16200.00000	107.71631	-412.24305	107.71631
16250.00000	107.91237	-414.03745	107.91237
16300.00000	108.18621	-416.29993	108.18621
16350.00000	108.25513	-418.81773	108.25513
16400.00000	108.39223	-420.99272	108.39223
16450.00000	108.56620	-423.33944	108.56620
16500.00000	108.70948	-425.77379	108.70948
16550.00000	108.93019	-428.90577	108.93019
16600.00000	109.11729	-431.13437	109.11729
16650.00000	109.25075	-433.52986	109.25075
16700.00000	109.44020	-435.69984	109.44020
16750.00000	109.51826	-438.51100	109.51826
16800.00000	109.71855	-441.26387	109.71855
16850.00000	109.95531	-443.89357	109.95531
16900.00000	110.15511	-446.50558	110.15511
16950.00000	110.32587	-449.05425	110.32587
17000.00000	110.36330	-451.69282	110.36330
17050.00000	110.57300	-453.88578	110.57300
17100.00000	110.69428	-455.82072	110.69428
17150.00000	111.01522	-459.22173	111.01522
17200.00000	111.18949	-461.80599	111.18949
17250.00000	111.28924	-465.09127	111.28924
17300.00000	111.52917	-467.83864	111.52917
17350.00000	111.56847	-470.58139	111.56847
17400.00000	111.81948	-473.66545	111.81948
17450.00000	111.90739	-477.19695	111.90739
17500.00000	112.08397	-480.13898	112.08397
17550.00000	112.21555	-483.31973	112.21555
17600.00000	112.41658	-486.05722	112.41658
17650.00000	112.50987	-490.17561	112.50987
17700.00000	112.59621	-493.35593	112.59621
17750.00000	112.81260	-496.00844	112.81260
17800.00000	112.77395	-499.79389	112.77395
17850.00000	112.87867	-502.66545	112.87867
17900.00000	112.90319	-506.07269	112.90319
17950.00000	113.04772	-509.57526	113.04772
18000.00000	113.07890	-513.15059	113.07890
18050.00000	113.24760	-515.88878	113.24760
18100.00000	113.21396	-519.48709	113.21396
18150.00000	113.24687	-522.03483	113.24687
18200.00000	113.22120	-525.88151	113.22120
18250.00000	113.33706	-528.25753	113.33706
18300.00000	113.42733	-531.34893	113.42733
18350.00000	113.46197	-534.32871	113.46197
18400.00000	113.44047	-537.72972	113.44047
18450.00000	113.44144	-542.02772	113.44144
18500.00000	113.50336	-544.97899	113.50336
18550.00000	113.51797	-547.60217	113.51797
18600.00000	113.62809	-551.23678	113.62809
18650.00000	113.51744	-554.04155	113.51744
18700.00000	113.52448	-557.73217	113.52448
18750.00000	113.60827	-560.88175	113.60827
18800.00000	113.72997	-563.55189	113.72997
18850.00000	113.63294	-567.13297	113.63294
18900.00000	113.61788	-570.21891	113.61788
18950.00000	113.63924	-574.05174	113.63924
19000.00000	113.49607	-577.03877	113.49607
19050.00000	113.61606	-580.49581	113.61606
19100.00000	113.54187	-583.62130	113.54187
19150.00000	113.64298	-586.79302	113.64298
19200.00000	113.57287	-589.86309	113.57287
19250.00000	113.50977	-594.36761	113.50977
19300.00000	113.40185	-597.02170	113.40185
19350.00000	113.35514	-600.40700	113.35514
19400.00000	113.25130	-603.60661	113.25130
19450.00000	113.26085	-606.47133	113.26085
19500.00000	113.09048	-610.64218	113.09048
19550.00000	113.02955	-613.71022	113.02955
19600.00000	113.00006	-617.49800	113.00006
19650.00000	112.83738	-620.25412	112.83738
19700.00000	112.61790	-623.64181	112.61790
19750.00000	112.48776	-626.21778	112.48776
19800.00000	112.44758	-630.22685	112.44758
19850.00000	112.34101	-632.98777	112.34101
19900.00000	112.13582	-636.70298	112.13582
19950.00000	111.95022	-639.60013	111.95022
20000.00000	111.80916	-642.68102	111.80916
20050.00000	111.66036	-645.65721	111.66036
20100.00000	111.40277	-648.55129	111.40277
20150.00000	111.28275	-650.54404	111.28275
20200.00000	111.05330	-654.05336	111.05330
20250.00000	110.81154	-656.67951	110.81154
20300.00000	110.53950	-659.33569	110.53950
20350.00000	110.40899	-661.98216	110.40899
20400.00000	110.12831	-663.57714	110.12831
20450.00000	109.81472	-666.04944	109.81472
20500.00000	109.66701	-668.56883	109.66701
20550.00000	109.22606	-669.89217	109.22606
20600.00000	109.08700	-671.54905	109.08700
20650.00000	108.85195	-673.25212	108.85195
20700.00000	108.57324	-674.80726	108.57324
20750.00000	108.41456	-676.06272	108.41456
20800.00000	108.17442	-676.90889	108.17442
20850.00000	108.04719	-678.01379	108.04719
20900.00000	107.81454	-678.91485	107.81454
20950.00000	107.65796	-679.16953	107.65796
21000.00000	107.54261	-679.66588	107.54261
21050.00000	107.60924	-679.91589	107.60924
21100.00000	107.52728	-680.07414	107.52728
21150.00000	107.60299	-680.85523	107.60299
21200.00000	107.67128	-681.14413	107.67128
21250.00000	107.74315	-683.08605	107.74315
21300.00000	107.89701	-683.36188	107.89701
21350.00000	107.97416	-684.30497	107.97416
21400.00000	108.06701	-686.08072	108.06701
21450.00000	108.19355	-687.60521	108.19355
21500.00000	108.32759	-689.55176	108.32759
21550.00000	108.33302	-690.97107	108.33302
21600.00000	108.49945	-693.02534	108.49945
21650.00000	108.54715	-695.13849	108.54715
21700.00000	108.60946	-696.86324	108.60946
21750.00000	108.70643	-698.74885	108.70643
21800.00000	108.77844	-700.85005	108.77844
21850.00000	108.76300	-702.82313	108.76300
21900.00000	108.85831	-704.97700	108.85831
21950.00000	108.87939	-706.85981	108.87939
22000.00000	108.97866	-708.83507	108.97866
22050.00000	108.97922	-710.52491	108.97922
22100.00000	108.98771	-712.78144	108.98771
22150.00000	109.01288	-714.66217	109.01288
22200.00000	109.10449	-716.59387	109.10449
22250.00000	109.07113	-718.15425	109.07113
22300.00000	108.98952	-720.19305	108.98952
22350.00000	109.12084	-722.40544	109.12084
22400.00000	109.16404	-724.38289	109.16404
22450.00000	109.11849	-726.01239	109.11849
22500.00000	109.09590	-726.77127	109.09590
22550.00000	109.12038	-728.99659	109.12038
22600.00000	109.10830	-731.65795	109.10830
22650.00000	109.18269	-733.11333	109.18269
