---ACOUSTIC CALIBRATION---
Filename: C:\Data\AZH DATA\AZH41\RightPrimary.calib
Date: 8/27/2019 2:02:05 PM
Format: 4
Probe Tube Correction File: C:\Data\Probe Tube Calibrations\50_ProbeTube.calib
Experiment VIs: 850
EPL_CFTS.exe V12.0.1 (2012)
DAQmx V9.6

Attenuation (dB): 40.000000
Min Freq (Hz): 50.000000
Max Freq (Hz): 49950.000000
Freq Step (Hz): 50.000000
Sample Rate (Hz): 100000.000000
[Smoothing]
Method=None
MA.Iterations=0
MA.Length=0
Loess.Length=0
Loess.Type=Linear
Loess.Robust=FALSE


Freq(Hz)	Mag(dB)	Phase(deg)	Unsmoothed(dB)

50.00000	101.20768	349.18918	101.20768
100.00000	86.05363	508.37630	86.05363
150.00000	81.32819	480.43657	81.32819
200.00000	86.98315	453.41521	86.98315
250.00000	93.92678	439.07803	93.92678
300.00000	97.56910	413.23241	97.56910
350.00000	88.40730	382.20822	88.40730
400.00000	93.22154	372.57727	93.22154
450.00000	91.82056	348.80543	91.82056
500.00000	93.58938	370.50520	93.58938
550.00000	97.11597	358.29325	97.11597
600.00000	100.48005	352.43912	100.48005
650.00000	101.25338	340.26191	101.25338
700.00000	103.84253	326.70481	103.84253
750.00000	105.08524	308.63296	105.08524
800.00000	106.26667	284.48327	106.26667
850.00000	105.26007	268.91225	105.26007
900.00000	103.49732	253.32883	103.49732
950.00000	101.90299	252.00948	101.90299
1000.00000	100.62877	251.56123	100.62877
1050.00000	98.60623	264.72655	98.60623
1100.00000	99.74015	285.92363	99.74015
1150.00000	102.30781	294.02428	102.30781
1200.00000	105.18156	291.99370	105.18156
1250.00000	106.93307	286.97643	106.93307
1300.00000	108.73326	280.88006	108.73326
1350.00000	110.16194	272.84540	110.16194
1400.00000	111.15956	264.41241	111.15956
1450.00000	112.13584	258.40236	112.13584
1500.00000	112.85241	251.58777	112.85241
1550.00000	114.09168	242.78693	114.09168
1600.00000	115.58723	232.83993	115.58723
1650.00000	116.59650	217.13664	116.59650
1700.00000	115.59736	206.59942	115.59736
1750.00000	115.38896	200.53324	115.38896
1800.00000	115.25643	195.04518	115.25643
1850.00000	115.31468	193.38713	115.31468
1900.00000	116.43504	188.78674	116.43504
1950.00000	117.10746	175.38584	117.10746
2000.00000	116.23132	162.41117	116.23132
2050.00000	114.60567	165.27401	114.60567
2100.00000	116.24724	166.15333	116.24724
2150.00000	117.09214	156.35643	117.09214
2200.00000	117.04744	145.65208	117.04744
2250.00000	116.42050	138.86393	116.42050
2300.00000	116.51349	132.79049	116.51349
2350.00000	116.20847	126.45588	116.20847
2400.00000	115.94072	120.61787	115.94072
2450.00000	115.58294	114.46480	115.58294
2500.00000	115.26020	109.31540	115.26020
2550.00000	114.72948	104.02327	114.72948
2600.00000	114.24989	99.89147	114.24989
2650.00000	113.70859	96.27878	113.70859
2700.00000	113.40996	92.95172	113.40996
2750.00000	112.65949	89.18919	112.65949
2800.00000	112.08621	86.77792	112.08621
2850.00000	111.46506	84.47888	111.46506
2900.00000	110.89691	82.59856	110.89691
2950.00000	110.20316	81.36086	110.20316
3000.00000	109.49799	81.08370	109.49799
3050.00000	108.74713	80.98420	108.74713
3100.00000	108.11807	82.94017	108.11807
3150.00000	107.23662	84.53165	107.23662
3200.00000	106.35174	91.04698	106.35174
3250.00000	105.85387	99.28664	105.85387
3300.00000	105.69794	108.84583	105.69794
3350.00000	106.19040	121.19268	106.19040
3400.00000	107.61284	133.37523	107.61284
3450.00000	109.71103	140.00362	109.71103
3500.00000	111.99293	141.46611	111.99293
3550.00000	113.93849	138.53486	113.93849
3600.00000	115.63494	134.82182	115.63494
3650.00000	117.05663	129.21416	117.05663
3700.00000	118.32255	123.78696	118.32255
3750.00000	119.55994	117.56794	119.55994
3800.00000	120.63197	110.26213	120.63197
3850.00000	121.50388	102.87915	121.50388
3900.00000	122.33954	96.04350	122.33954
3950.00000	123.10079	88.67774	123.10079
4000.00000	123.81485	81.17814	123.81485
4050.00000	124.47734	73.72146	124.47734
4100.00000	125.18187	66.21024	125.18187
4150.00000	126.06432	57.83911	126.06432
4200.00000	126.65692	47.91209	126.65692
4250.00000	127.20378	37.09730	127.20378
4300.00000	127.53200	25.45869	127.53200
4350.00000	127.56594	13.45935	127.56594
4400.00000	127.35940	 2.27344	127.35940
4450.00000	126.99885	-8.09303	126.99885
4500.00000	126.52593	-17.36557	126.52593
4550.00000	126.06203	-26.41624	126.06203
4600.00000	125.50020	-34.63254	125.50020
4650.00000	124.96425	-42.42312	124.96425
4700.00000	124.38115	-50.34034	124.38115
4750.00000	123.67284	-58.33846	123.67284
4800.00000	122.78920	-66.21538	122.78920
4850.00000	121.67913	-73.02217	121.67913
4900.00000	120.39296	-78.00807	120.39296
4950.00000	119.07583	-80.60932	119.07583
5000.00000	117.88623	-81.13601	117.88623
5050.00000	116.87622	-80.69659	116.87622
5100.00000	115.73462	-77.66266	115.73462
5150.00000	115.60618	-71.79248	115.60618
5200.00000	114.98433	-69.22934	114.98433
5250.00000	115.92642	-56.62690	115.92642
5300.00000	118.27258	-62.63921	118.27258
5350.00000	118.54992	-74.83278	118.54992
5400.00000	118.06020	-82.08616	118.06020
5450.00000	117.57623	-86.16700	117.57623
5500.00000	117.20838	-89.23722	117.20838
5550.00000	116.94077	-91.70483	116.94077
5600.00000	116.71946	-94.14099	116.71946
5650.00000	116.55161	-96.46322	116.55161
5700.00000	116.37303	-99.07632	116.37303
5750.00000	116.25932	-101.31831	116.25932
5800.00000	116.12804	-103.75061	116.12804
5850.00000	115.99853	-106.23255	115.99853
5900.00000	115.90934	-108.56058	115.90934
5950.00000	115.82282	-110.86907	115.82282
6000.00000	115.77877	-113.08195	115.77877
6050.00000	115.72946	-115.47774	115.72946
6100.00000	115.73008	-118.01024	115.73008
6150.00000	115.73107	-120.74657	115.73107
6200.00000	115.71870	-123.64727	115.71870
6250.00000	115.70353	-126.76189	115.70353
6300.00000	115.66097	-129.84156	115.66097
6350.00000	115.60305	-133.10914	115.60305
6400.00000	115.53364	-136.16275	115.53364
6450.00000	115.49543	-139.38595	115.49543
6500.00000	115.40294	-142.48870	115.40294
6550.00000	115.33418	-145.59039	115.33418
6600.00000	115.26054	-148.59407	115.26054
6650.00000	115.21483	-151.66193	115.21483
6700.00000	115.16143	-154.97814	115.16143
6750.00000	115.11119	-158.26890	115.11119
6800.00000	115.06633	-161.48374	115.06633
6850.00000	115.00824	-164.86514	115.00824
6900.00000	114.94698	-168.39048	114.94698
6950.00000	114.90726	-171.73087	114.90726
7000.00000	114.85313	-175.38187	114.85313
7050.00000	114.77653	-179.11095	114.77653
7100.00000	114.72419	-183.03074	114.72419
7150.00000	114.63427	-186.95729	114.63427
7200.00000	114.52144	-191.03466	114.52144
7250.00000	114.36861	-195.32122	114.36861
7300.00000	114.24091	-199.60034	114.24091
7350.00000	114.03491	-203.91350	114.03491
7400.00000	113.82765	-208.44249	113.82765
7450.00000	113.56291	-212.83859	113.56291
7500.00000	113.28237	-217.22743	113.28237
7550.00000	112.94670	-221.55273	112.94670
7600.00000	112.56033	-225.78952	112.56033
7650.00000	112.16570	-229.91283	112.16570
7700.00000	111.77547	-233.85393	111.77547
7750.00000	111.28111	-237.68073	111.28111
7800.00000	110.80269	-241.25499	110.80269
7850.00000	110.30154	-244.35454	110.30154
7900.00000	109.82238	-247.23364	109.82238
7950.00000	109.33124	-250.00568	109.33124
8000.00000	108.83328	-252.45821	108.83328
8050.00000	108.35072	-254.74869	108.35072
8100.00000	107.92064	-256.33022	107.92064
8150.00000	107.37486	-257.50458	107.37486
8200.00000	106.89913	-258.44512	106.89913
8250.00000	106.38310	-259.65915	106.38310
8300.00000	105.91588	-260.52832	105.91588
8350.00000	105.43431	-261.09229	105.43431
8400.00000	104.97136	-262.37013	104.97136
8450.00000	104.45373	-263.68989	104.45373
8500.00000	104.00894	-265.10515	104.00894
8550.00000	103.68055	-266.28460	103.68055
8600.00000	103.35778	-267.96614	103.35778
8650.00000	103.12451	-269.18918	103.12451
8700.00000	102.92709	-270.70181	102.92709
8750.00000	102.78238	-270.64391	102.78238
8800.00000	102.70370	-271.39899	102.70370
8850.00000	102.53140	-271.53480	102.53140
8900.00000	102.41367	-270.96589	102.41367
8950.00000	102.20188	-270.76958	102.20188
9000.00000	101.90490	-270.35610	101.90490
9050.00000	101.61203	-270.97846	101.61203
9100.00000	101.23896	-271.35979	101.23896
9150.00000	100.91629	-272.36136	100.91629
9200.00000	100.60583	-274.00610	100.60583
9250.00000	100.31748	-275.88010	100.31748
9300.00000	100.15026	-277.97318	100.15026
9350.00000	100.24384	-280.16414	100.24384
9400.00000	100.20608	-281.38835	100.20608
9450.00000	100.32163	-281.92738	100.32163
9500.00000	100.44109	-281.22195	100.44109
9550.00000	100.59833	-279.89979	100.59833
9600.00000	100.73423	-279.76303	100.73423
9650.00000	100.69146	-279.97876	100.69146
9700.00000	100.52921	-279.66110	100.52921
9750.00000	100.40477	-280.70672	100.40477
9800.00000	100.17486	-281.45037	100.17486
9850.00000	100.06967	-282.77023	100.06967
9900.00000	99.93049	-285.05319	99.93049
9950.00000	99.98376	-287.01702	99.98376
10000.00000	100.15350	-289.26921	100.15350
10050.00000	100.31132	-290.96228	100.31132
10100.00000	100.47248	-292.10707	100.47248
10150.00000	100.51072	-293.72634	100.51072
10200.00000	100.56092	-294.89406	100.56092
10250.00000	100.47734	-296.28655	100.47734
10300.00000	100.47371	-298.07896	100.47371
10350.00000	100.31420	-300.17931	100.31420
10400.00000	100.14534	-303.18162	100.14534
10450.00000	100.12321	-306.55005	100.12321
10500.00000	100.09873	-309.88809	100.09873
10550.00000	100.15499	-313.08428	100.15499
10600.00000	100.16517	-315.59185	100.16517
10650.00000	100.14809	-317.59673	100.14809
10700.00000	100.08361	-320.44689	100.08361
10750.00000	99.98932	-322.58069	99.98932
10800.00000	99.75884	-324.48559	99.75884
10850.00000	99.51627	-327.80942	99.51627
10900.00000	99.26951	-330.27428	99.26951
10950.00000	99.00541	-332.79489	99.00541
11000.00000	98.77037	-335.55693	98.77037
11050.00000	98.40655	-338.06817	98.40655
11100.00000	98.18273	-340.72359	98.18273
11150.00000	97.79702	-342.47583	97.79702
11200.00000	97.53064	-343.86910	97.53064
11250.00000	97.10631	-345.67028	97.10631
11300.00000	96.65020	-347.19105	96.65020
11350.00000	96.23739	-348.10519	96.23739
11400.00000	95.75626	-349.30669	95.75626
11450.00000	95.39995	-350.89042	95.39995
11500.00000	95.16521	-350.97439	95.16521
11550.00000	94.73181	-351.13520	94.73181
11600.00000	94.50392	-352.05939	94.50392
11650.00000	94.19480	-351.01251	94.19480
11700.00000	93.95207	-351.13846	93.95207
11750.00000	93.74359	-350.82307	93.74359
11800.00000	93.52121	-351.12006	93.52121
11850.00000	93.40796	-349.94839	93.40796
11900.00000	93.10690	-349.66354	93.10690
11950.00000	93.02733	-348.58032	93.02733
12000.00000	92.81925	-347.48591	92.81925
12050.00000	92.62594	-346.09477	92.62594
12100.00000	92.53601	-346.35485	92.53601
12150.00000	92.41191	-345.93219	92.41191
12200.00000	92.38217	-346.19284	92.38217
12250.00000	92.42220	-345.91283	92.42220
12300.00000	93.66376	-345.98769	93.66376
12350.00000	92.66705	-345.64609	92.66705
12400.00000	92.80920	-344.33702	92.80920
12450.00000	92.90890	-343.30692	92.90890
12500.00000	92.97526	-342.95436	92.97526
12550.00000	92.96940	-342.40064	92.96940
12600.00000	92.88657	-343.64456	92.88657
12650.00000	93.13695	-344.14151	93.13695
12700.00000	93.16008	-345.24257	93.16008
12750.00000	93.29560	-346.61236	93.29560
12800.00000	93.45702	-346.97888	93.45702
12850.00000	93.35915	-346.89339	93.35915
12900.00000	93.55706	-347.63938	93.55706
12950.00000	93.64176	-348.10378	93.64176
13000.00000	93.66003	-349.36190	93.66003
13050.00000	93.76892	-349.02630	93.76892
13100.00000	93.75063	-350.43815	93.75063
13150.00000	93.87872	-351.87028	93.87872
13200.00000	93.95019	-351.77550	93.95019
13250.00000	94.08526	-352.69545	94.08526
13300.00000	94.14152	-351.21104	94.14152
13350.00000	94.19503	-352.05876	94.19503
13400.00000	94.36188	-353.08369	94.36188
13450.00000	94.23908	-352.39218	94.23908
13500.00000	94.46943	-353.07500	94.46943
13550.00000	94.40631	-353.61864	94.40631
13600.00000	94.61127	-353.44322	94.61127
13650.00000	94.74059	-353.47097	94.74059
13700.00000	94.69327	-353.89539	94.69327
13750.00000	94.80683	-354.02702	94.80683
13800.00000	94.94975	-356.53230	94.94975
13850.00000	95.07026	-357.31183	95.07026
13900.00000	95.23243	-357.41567	95.23243
13950.00000	95.58564	-357.49200	95.58564
14000.00000	96.04849	-356.32339	96.04849
14050.00000	96.30464	-357.01714	96.30464
14100.00000	96.38728	-357.63621	96.38728
14150.00000	96.76768	-358.54220	96.76768
14200.00000	97.10796	-359.52331	97.10796
14250.00000	97.79159	-359.04786	97.79159
14300.00000	98.04145	-360.59682	98.04145
14350.00000	98.32413	-360.22824	98.32413
14400.00000	98.36147	-362.11036	98.36147
14450.00000	98.67005	-362.81737	98.67005
14500.00000	98.94795	-365.20335	98.94795
14550.00000	99.34414	-366.35556	99.34414
14600.00000	99.51718	-369.87311	99.51718
14650.00000	100.06449	-370.25016	100.06449
14700.00000	100.40831	-376.33487	100.40831
14750.00000	100.67393	-378.08066	100.67393
14800.00000	100.85986	-379.45027	100.85986
14850.00000	101.21739	-381.06129	101.21739
14900.00000	101.47091	-383.86462	101.47091
14950.00000	101.68058	-386.95929	101.68058
15000.00000	101.98167	-389.95664	101.98167
15050.00000	102.04385	-391.22606	102.04385
15100.00000	102.28409	-392.83690	102.28409
15150.00000	102.63314	-395.88959	102.63314
15200.00000	102.62983	-396.86582	102.62983
15250.00000	102.59529	-400.39514	102.59529
15300.00000	102.93382	-403.43550	102.93382
15350.00000	103.04086	-406.82029	103.04086
15400.00000	103.15966	-408.19762	103.15966
15450.00000	103.31905	-410.93216	103.31905
15500.00000	103.52670	-413.25642	103.52670
15550.00000	103.63978	-415.86126	103.63978
15600.00000	103.71442	-418.59527	103.71442
15650.00000	103.96368	-419.35519	103.96368
15700.00000	103.91327	-423.30068	103.91327
15750.00000	104.15794	-425.28796	104.15794
15800.00000	104.32275	-426.76575	104.32275
15850.00000	104.42399	-428.84116	104.42399
15900.00000	104.49669	-432.04618	104.49669
15950.00000	104.63427	-433.98609	104.63427
16000.00000	104.73868	-436.25748	104.73868
16050.00000	104.93868	-438.55539	104.93868
16100.00000	104.92662	-441.16698	104.92662
16150.00000	105.02705	-443.35265	105.02705
16200.00000	105.16796	-446.39719	105.16796
16250.00000	105.29473	-448.37421	105.29473
16300.00000	105.55081	-450.93059	105.55081
16350.00000	105.63639	-453.26899	105.63639
16400.00000	105.77808	-455.14427	105.77808
16450.00000	105.87964	-457.47852	105.87964
16500.00000	105.89943	-459.81503	105.89943
16550.00000	106.15827	-462.92206	106.15827
16600.00000	106.29387	-465.21070	106.29387
16650.00000	106.38470	-467.65092	106.38470
16700.00000	106.55694	-469.83843	106.55694
16750.00000	106.58299	-472.74353	106.58299
16800.00000	106.73967	-475.56508	106.73967
16850.00000	106.93613	-478.08760	106.93613
16900.00000	107.07558	-480.75872	107.07558
16950.00000	107.19309	-483.44778	107.19309
17000.00000	107.20225	-486.38528	107.20225
17050.00000	107.36659	-488.35845	107.36659
17100.00000	107.39062	-489.87474	107.39062
17150.00000	107.62806	-493.66943	107.62806
17200.00000	107.73781	-496.25383	107.73781
17250.00000	107.79590	-499.64625	107.79590
17300.00000	107.99501	-502.28969	107.99501
17350.00000	107.96718	-504.82105	107.96718
17400.00000	108.16350	-507.89627	108.16350
17450.00000	108.17887	-511.31848	108.17887
17500.00000	108.32327	-514.27467	108.32327
17550.00000	108.41562	-517.26727	108.41562
17600.00000	108.58201	-519.97418	108.58201
17650.00000	108.63505	-523.92240	108.63505
17700.00000	108.73650	-526.70720	108.73650
17750.00000	108.84821	-529.79498	108.84821
17800.00000	108.80211	-533.67592	108.80211
17850.00000	108.84997	-536.52729	108.84997
17900.00000	108.84784	-539.92222	108.84784
17950.00000	108.97210	-543.50066	108.97210
18000.00000	108.93545	-547.17642	108.93545
18050.00000	109.06865	-550.12233	109.06865
18100.00000	108.99017	-554.00805	108.99017
18150.00000	108.96109	-556.77113	108.96109
18200.00000	108.87962	-560.63707	108.87962
18250.00000	108.90429	-563.19888	108.90429
18300.00000	108.92536	-566.21924	108.92536
18350.00000	108.87490	-569.70307	108.87490
18400.00000	108.75758	-573.17660	108.75758
18450.00000	108.64604	-577.61575	108.64604
18500.00000	108.58656	-580.46780	108.58656
18550.00000	108.49755	-583.13163	108.49755
18600.00000	108.49188	-586.71995	108.49188
18650.00000	108.27253	-589.45770	108.27253
18700.00000	108.15841	-592.87126	108.15841
18750.00000	108.10442	-595.68633	108.10442
18800.00000	108.10192	-598.12554	108.10192
18850.00000	107.87354	-601.12576	107.87354
18900.00000	107.65539	-603.53869	107.65539
18950.00000	107.65695	-607.06391	107.65695
19000.00000	107.41530	-609.18400	107.41530
19050.00000	107.44231	-611.94554	107.44231
19100.00000	107.27709	-614.44175	107.27709
19150.00000	107.30066	-616.74585	107.30066
19200.00000	107.17891	-618.80737	107.17891
19250.00000	107.08168	-622.54244	107.08168
19300.00000	106.93216	-624.28241	106.93216
19350.00000	106.86554	-626.85751	106.86554
19400.00000	106.74637	-629.03010	106.74637
19450.00000	106.75259	-631.04737	106.75259
19500.00000	106.62531	-634.88715	106.62531
19550.00000	106.54837	-636.70952	106.54837
19600.00000	106.55119	-639.72165	106.55119
19650.00000	106.42023	-641.72956	106.42023
19700.00000	106.26239	-644.55520	106.26239
19750.00000	106.18373	-646.35406	106.18373
19800.00000	106.18248	-649.87490	106.18248
19850.00000	106.12826	-652.00771	106.12826
19900.00000	105.99027	-655.24965	105.99027
19950.00000	105.88862	-657.77175	105.88862
20000.00000	105.80846	-660.44153	105.80846
20050.00000	105.73474	-662.97197	105.73474
20100.00000	105.52072	-665.56745	105.52072
20150.00000	105.50286	-667.51132	105.50286
20200.00000	105.34334	-671.03386	105.34334
20250.00000	105.17448	-673.46782	105.17448
20300.00000	104.97058	-676.15463	104.97058
20350.00000	104.91065	-678.96081	104.91065
20400.00000	104.68793	-680.82321	104.68793
20450.00000	104.46008	-683.47708	104.46008
20500.00000	104.34007	-686.18102	104.34007
20550.00000	103.92865	-687.89639	103.92865
20600.00000	103.82421	-689.80223	103.82421
20650.00000	103.59764	-692.11605	103.59764
20700.00000	103.37389	-693.95333	103.37389
20750.00000	103.14617	-695.86922	103.14617
20800.00000	102.88712	-697.18612	102.88712
20850.00000	102.70300	-698.82739	102.70300
20900.00000	102.41834	-700.19427	102.41834
20950.00000	102.17562	-700.95454	102.17562
21000.00000	101.96872	-701.82901	101.96872
21050.00000	101.91484	-702.21225	101.91484
21100.00000	101.72085	-702.58901	101.72085
21150.00000	101.66274	-703.42558	101.66274
21200.00000	101.62399	-703.62741	101.62399
21250.00000	101.55799	-705.41619	101.55799
21300.00000	101.62175	-705.53370	101.62175
21350.00000	101.55817	-706.03663	101.55817
21400.00000	101.54551	-707.40268	101.54551
21450.00000	101.57518	-708.35397	101.57518
21500.00000	101.65447	-709.92516	101.65447
21550.00000	101.54629	-710.69141	101.54629
21600.00000	101.65829	-712.39076	101.65829
21650.00000	101.65316	-714.25326	101.65316
21700.00000	101.65479	-715.37977	101.65479
21750.00000	101.69131	-716.90917	101.69131
21800.00000	101.66252	-718.41124	101.66252
21850.00000	101.64292	-719.97376	101.64292
21900.00000	101.71237	-722.04624	101.71237
21950.00000	101.65724	-722.99792	101.65724
22000.00000	101.67666	-724.29946	101.67666
22050.00000	101.62695	-725.82223	101.62695
22100.00000	101.59457	-727.27258	101.59457
22150.00000	101.59887	-728.82019	101.59887
22200.00000	101.68971	-730.48217	101.68971
22250.00000	101.62991	-731.29599	101.62991
22300.00000	101.52117	-732.95473	101.52117
22350.00000	101.64984	-734.91093	101.64984
22400.00000	101.71526	-736.19035	101.71526
22450.00000	101.59170	-737.82821	101.59170
22500.00000	101.67711	-738.71937	101.67711
22550.00000	101.58471	-740.52932	101.58471
22600.00000	101.62587	-743.03014	101.62587
22650.00000	101.63534	-744.05213	101.63534
