---ACOUSTIC CALIBRATION---
Filename: C:\Data\AZH DATA\AZH41\RightPrimary.calib
Date: 8/27/2019 2:04:07 PM
Format: 4
Probe Tube Correction File: C:\Data\Probe Tube Calibrations\50_ProbeTube.calib
Experiment VIs: 850
EPL_CFTS.exe V12.0.1 (2012)
DAQmx V9.6

Attenuation (dB): 40.000000
Min Freq (Hz): 50.000000
Max Freq (Hz): 49950.000000
Freq Step (Hz): 50.000000
Sample Rate (Hz): 100000.000000
[Smoothing]
Method=None
MA.Iterations=0
MA.Length=0
Loess.Length=0
Loess.Type=Linear
Loess.Robust=FALSE


Freq(Hz)	Mag(dB)	Phase(deg)	Unsmoothed(dB)

50.00000	105.19542	356.32319	105.19542
100.00000	83.94252	213.27456	83.94252
150.00000	75.92255	122.13626	75.92255
200.00000	83.43638	133.79621	83.43638
250.00000	83.31629	86.26901	83.31629
300.00000	82.56202	160.61699	82.56202
350.00000	77.17816	33.48722	77.17816
400.00000	85.11053	41.71641	85.11053
450.00000	88.09785	 7.49421	88.09785
500.00000	88.95198	32.08534	88.95198
550.00000	89.46869	24.62718	89.46869
600.00000	95.24008	13.01947	95.24008
650.00000	96.17109	-5.05894	96.17109
700.00000	98.49776	-14.67420	98.49776
750.00000	99.60592	-34.97390	99.60592
800.00000	101.22267	-56.79312	101.22267
850.00000	100.46600	-74.48369	100.46600
900.00000	99.21799	-91.57290	99.21799
950.00000	97.02112	-95.71146	97.02112
1000.00000	95.89958	-97.57645	95.89958
1050.00000	93.98261	-84.33314	93.98261
1100.00000	94.93578	-63.83676	94.93578
1150.00000	97.64639	-57.49759	97.64639
1200.00000	100.31416	-60.09333	100.31416
1250.00000	102.10123	-64.76409	102.10123
1300.00000	103.83677	-70.82399	103.83677
1350.00000	105.16336	-79.98507	105.16336
1400.00000	106.15112	-89.01785	106.15112
1450.00000	106.95157	-94.37689	106.95157
1500.00000	108.02478	-100.79863	108.02478
1550.00000	108.90342	-108.96952	108.90342
1600.00000	110.50694	-117.78132	110.50694
1650.00000	111.46240	-134.33784	111.46240
1700.00000	110.36085	-145.31354	110.36085
1750.00000	110.15266	-150.95263	110.15266
1800.00000	110.02658	-156.74740	110.02658
1850.00000	110.05240	-158.30199	110.05240
1900.00000	111.10227	-161.89273	111.10227
1950.00000	111.75637	-174.34878	111.75637
2000.00000	111.07322	-186.91384	111.07322
2050.00000	109.47023	-184.81781	109.47023
2100.00000	111.16024	-182.42074	111.16024
2150.00000	112.00397	-192.76696	112.00397
2200.00000	112.01181	-203.31468	112.01181
2250.00000	111.48076	-210.26085	111.48076
2300.00000	111.62577	-216.43989	111.62577
2350.00000	111.36972	-222.75419	111.36972
2400.00000	111.19809	-228.66158	111.19809
2450.00000	110.81547	-234.76086	110.81547
2500.00000	110.55507	-240.13180	110.55507
2550.00000	110.03143	-246.04340	110.03143
2600.00000	109.53385	-250.14833	109.53385
2650.00000	109.02809	-254.28585	109.02809
2700.00000	108.57112	-258.01825	108.57112
2750.00000	107.95833	-261.81868	107.95833
2800.00000	107.33852	-264.39065	107.33852
2850.00000	106.75203	-266.68917	106.75203
2900.00000	106.15481	-268.58285	106.15481
2950.00000	105.49219	-269.91253	105.49219
3000.00000	104.80268	-271.10643	104.80268
3050.00000	103.93158	-272.01096	103.93158
3100.00000	103.15618	-270.98936	103.15618
3150.00000	102.00958	-269.36882	102.00958
3200.00000	100.70775	-262.67384	100.70775
3250.00000	99.95729	-252.27662	99.95729
3300.00000	99.75480	-238.83713	99.75480
3350.00000	100.30919	-223.38983	100.30919
3400.00000	102.05439	-208.31730	102.05439
3450.00000	104.57347	-201.23339	104.57347
3500.00000	107.06664	-200.39374	107.06664
3550.00000	109.11787	-204.34976	109.11787
3600.00000	110.96768	-208.18949	110.96768
3650.00000	112.43463	-214.32422	112.43463
3700.00000	113.68704	-219.83927	113.68704
3750.00000	114.93779	-225.88396	114.93779
3800.00000	116.05765	-232.74740	116.05765
3850.00000	116.98379	-239.70035	116.98379
3900.00000	117.87222	-246.33610	117.87222
3950.00000	118.76479	-253.18827	118.76479
4000.00000	119.58356	-260.58934	119.58356
4050.00000	120.35602	-267.87662	120.35602
4100.00000	121.18921	-275.49876	121.18921
4150.00000	122.16580	-284.08641	122.16580
4200.00000	122.84742	-294.31143	122.84742
4250.00000	123.45023	-305.56602	123.45023
4300.00000	123.81228	-317.40294	123.81228
4350.00000	123.86557	-329.56577	123.86557
4400.00000	123.68785	-340.75573	123.68785
4450.00000	123.36241	-351.05815	123.36241
4500.00000	122.96204	-360.35764	122.96204
4550.00000	122.54247	-369.02949	122.54247
4600.00000	122.07212	-377.10755	122.07212
4650.00000	121.65574	-384.82505	121.65574
4700.00000	121.20288	-392.98486	121.20288
4750.00000	120.62005	-401.39185	120.62005
4800.00000	119.84545	-409.97606	119.84545
4850.00000	118.79445	-417.70491	118.79445
4900.00000	117.51385	-423.69893	117.51385
4950.00000	116.15980	-426.90545	116.15980
5000.00000	114.92240	-427.76102	114.92240
5050.00000	113.88182	-427.67075	113.88182
5100.00000	112.77146	-424.71555	112.77146
5150.00000	112.57319	-418.74605	112.57319
5200.00000	112.03012	-416.21896	112.03012
5250.00000	112.96702	-404.34581	112.96702
5300.00000	115.29529	-410.68060	115.29529
5350.00000	115.54037	-423.29466	115.54037
5400.00000	114.99381	-430.62526	114.99381
5450.00000	114.45547	-434.76992	114.45547
5500.00000	114.07298	-437.82702	114.07298
5550.00000	113.76517	-440.12670	113.76517
5600.00000	113.54348	-442.60743	113.54348
5650.00000	113.35510	-444.82977	113.35510
5700.00000	113.17293	-447.37026	113.17293
5750.00000	113.03189	-449.56942	113.03189
5800.00000	112.88839	-452.06998	112.88839
5850.00000	112.74774	-454.37092	112.74774
5900.00000	112.65475	-456.64109	112.65475
5950.00000	112.55412	-458.80573	112.55412
6000.00000	112.47735	-460.94066	112.47735
6050.00000	112.41159	-463.26314	112.41159
6100.00000	112.40459	-465.58507	112.40459
6150.00000	112.37993	-468.14919	112.37993
6200.00000	112.34823	-470.75986	112.34823
6250.00000	112.31824	-473.72279	112.31824
6300.00000	112.27845	-476.53946	112.27845
6350.00000	112.19246	-479.51353	112.19246
6400.00000	112.09192	-482.28184	112.09192
6450.00000	112.04060	-485.11403	112.04060
6500.00000	111.95633	-487.86145	111.95633
6550.00000	111.87429	-490.49930	111.87429
6600.00000	111.80161	-493.22648	111.80161
6650.00000	111.73319	-495.77885	111.73319
6700.00000	111.67223	-498.50301	111.67223
6750.00000	111.61937	-501.11170	111.61937
6800.00000	111.59182	-503.75493	111.59182
6850.00000	111.54402	-506.38675	111.54402
6900.00000	111.51439	-509.08363	111.51439
6950.00000	111.49160	-511.59121	111.49160
7000.00000	111.48827	-514.38523	111.48827
7050.00000	111.46076	-517.29422	111.46076
7100.00000	111.45038	-520.32881	111.45038
7150.00000	111.44536	-523.08457	111.44536
7200.00000	111.42951	-526.20250	111.42951
7250.00000	111.39896	-529.48824	111.39896
7300.00000	111.40880	-532.67533	111.40880
7350.00000	111.36707	-535.90243	111.36707
7400.00000	111.35336	-539.37068	111.35336
7450.00000	111.30782	-542.91034	111.30782
7500.00000	111.25493	-546.30759	111.25493
7550.00000	111.19217	-550.03564	111.19217
7600.00000	111.11270	-553.66865	111.11270
7650.00000	111.01278	-557.26370	111.01278
7700.00000	110.94406	-560.86012	110.94406
7750.00000	110.79811	-564.66392	110.79811
7800.00000	110.66635	-568.36275	110.66635
7850.00000	110.50653	-571.91428	110.50653
7900.00000	110.36198	-575.40548	110.36198
7950.00000	110.19552	-578.99744	110.19552
8000.00000	110.00756	-582.54058	110.00756
8050.00000	109.80478	-586.34452	109.80478
8100.00000	109.60147	-589.33569	109.60147
8150.00000	109.33855	-592.59120	109.33855
8200.00000	109.11715	-595.54103	109.11715
8250.00000	108.85242	-598.95198	108.85242
8300.00000	108.61322	-602.02366	108.61322
8350.00000	108.34290	-604.92415	108.34290
8400.00000	108.06885	-608.46162	108.06885
8450.00000	107.72000	-611.62285	107.72000
8500.00000	107.41779	-614.81950	107.41779
8550.00000	107.12391	-617.66086	107.12391
8600.00000	106.84006	-620.91257	106.84006
8650.00000	106.52709	-623.68250	106.52709
8700.00000	106.26475	-626.82337	106.26475
8750.00000	105.93765	-628.24728	105.93765
8800.00000	105.67223	-630.86669	105.67223
8850.00000	105.33098	-633.14546	105.33098
8900.00000	105.06730	-634.94065	105.06730
8950.00000	104.75725	-637.26269	104.75725
9000.00000	104.33802	-639.54949	104.33802
9050.00000	104.00558	-642.24439	104.00558
9100.00000	103.65553	-644.41916	103.65553
9150.00000	103.34542	-646.95940	103.34542
9200.00000	103.09008	-649.55070	103.09008
9250.00000	102.81848	-652.01197	102.81848
9300.00000	102.64047	-654.30420	102.64047
9350.00000	102.52170	-656.29874	102.52170
9400.00000	102.25897	-657.77141	102.25897
9450.00000	102.08059	-658.88062	102.08059
9500.00000	101.88588	-659.10148	101.88588
9550.00000	101.76453	-659.13205	101.76453
9600.00000	101.68761	-660.52154	101.68761
9650.00000	101.43323	-662.15453	101.43323
9700.00000	101.15015	-663.23434	101.15015
9750.00000	100.94140	-665.69380	100.94140
9800.00000	100.68092	-667.01290	100.68092
9850.00000	100.50829	-668.54232	100.50829
9900.00000	100.22531	-670.46692	100.22531
9950.00000	100.14880	-671.65108	100.14880
10000.00000	100.06732	-673.31416	100.06732
10050.00000	99.94839	-674.47222	99.94839
10100.00000	99.82305	-675.29240	99.82305
10150.00000	99.59939	-676.86824	99.59939
10200.00000	99.43350	-678.28031	99.43350
10250.00000	99.19027	-679.91363	99.19027
10300.00000	99.09870	-681.63739	99.09870
10350.00000	98.88152	-683.52866	98.88152
10400.00000	98.67597	-685.91556	98.67597
10450.00000	98.66721	-688.39733	98.66721
10500.00000	98.65743	-690.48608	98.65743
10550.00000	98.62703	-692.60404	98.62703
10600.00000	98.58316	-694.37811	98.58316
10650.00000	98.51389	-695.58784	98.51389
10700.00000	98.44908	-698.10902	98.44908
10750.00000	98.38307	-699.97505	98.38307
10800.00000	98.20588	-701.69472	98.20588
10850.00000	98.05581	-704.60826	98.05581
10900.00000	97.92075	-706.80280	97.92075
10950.00000	97.81344	-708.83901	97.81344
11000.00000	97.69068	-711.12667	97.69068
11050.00000	97.42034	-713.19794	97.42034
11100.00000	97.26756	-715.68248	97.26756
11150.00000	97.00787	-717.54028	97.00787
11200.00000	96.85244	-719.33810	96.85244
11250.00000	96.57367	-721.64943	96.57367
11300.00000	96.27159	-723.88084	96.27159
11350.00000	96.02711	-725.60405	96.02711
11400.00000	95.69781	-727.66303	95.69781
11450.00000	95.50202	-730.15463	95.50202
11500.00000	95.40438	-731.54058	95.40438
11550.00000	95.11233	-733.14211	95.11233
11600.00000	95.01081	-735.51257	95.01081
11650.00000	94.77294	-736.13913	94.77294
11700.00000	94.64475	-737.74489	94.64475
11750.00000	94.47735	-739.52280	94.47735
11800.00000	94.30053	-741.74771	94.30053
11850.00000	94.16001	-742.61164	94.16001
11900.00000	93.81911	-745.13662	93.81911
11950.00000	93.59930	-746.69135	93.59930
12000.00000	93.27256	-748.26853	93.27256
12050.00000	92.95242	-749.71154	92.95242
12100.00000	92.70269	-752.31120	92.70269
12150.00000	92.42160	-754.68351	92.42160
12200.00000	92.22851	-756.60152	92.22851
12250.00000	91.92300	-758.09748	91.92300
12300.00000	92.77305	-759.29666	92.77305
12350.00000	91.35264	-760.49371	91.35264
12400.00000	90.94208	-760.30926	90.94208
12450.00000	90.54983	-760.58761	90.54983
12500.00000	90.17369	-762.40058	90.17369
12550.00000	89.81369	-763.19027	89.81369
12600.00000	89.38765	-764.67787	89.38765
12650.00000	89.25948	-765.21578	89.25948
12700.00000	88.95657	-765.74046	88.95657
12750.00000	88.69809	-765.97196	88.69809
12800.00000	88.38627	-765.75780	88.38627
12850.00000	87.74462	-765.76791	87.74462
12900.00000	87.42036	-766.07337	87.42036
12950.00000	87.10769	-766.68582	87.10769
13000.00000	86.69129	-766.37696	86.69129
13050.00000	86.72507	-765.55810	86.72507
13100.00000	86.34319	-765.59138	86.34319
13150.00000	86.11978	-764.82995	86.11978
13200.00000	85.93861	-762.08097	85.93861
13250.00000	85.66880	-761.75554	85.66880
13300.00000	85.31548	-759.15978	85.31548
13350.00000	85.16635	-759.02698	85.16635
13400.00000	85.13727	-758.24652	85.13727
13450.00000	84.95946	-755.17551	84.95946
13500.00000	85.08813	-752.60729	85.08813
13550.00000	84.89183	-752.02480	84.89183
13600.00000	85.02285	-749.27555	85.02285
13650.00000	84.88674	-748.26872	84.88674
13700.00000	84.83263	-746.65723	84.83263
13750.00000	84.80077	-745.70838	84.80077
13800.00000	84.86549	-747.61495	84.86549
13850.00000	85.00217	-746.57063	85.00217
13900.00000	85.05705	-744.48389	85.05705
13950.00000	85.15441	-743.35011	85.15441
14000.00000	85.48064	-741.30894	85.48064
14050.00000	85.67075	-740.41509	85.67075
14100.00000	85.82806	-739.59206	85.82806
14150.00000	86.14508	-738.46850	86.14508
14200.00000	86.45374	-737.72899	86.45374
14250.00000	86.93552	-735.13773	86.93552
14300.00000	87.14586	-734.58494	87.14586
14350.00000	87.34389	-733.03392	87.34389
14400.00000	87.40105	-733.05153	87.40105
14450.00000	87.57322	-731.87553	87.57322
14500.00000	87.93970	-732.07682	87.93970
14550.00000	88.36842	-731.39650	88.36842
14600.00000	88.56541	-733.10460	88.56541
14650.00000	89.16986	-731.57873	89.16986
14700.00000	89.54834	-735.50413	89.54834
14750.00000	89.89560	-736.07450	89.89560
14800.00000	90.11773	-735.05558	90.11773
14850.00000	90.64375	-735.42000	90.64375
14900.00000	91.12553	-737.07248	91.12553
14950.00000	91.55510	-737.76343	91.55510
15000.00000	91.96377	-739.41228	91.96377
15050.00000	92.24582	-739.11240	92.24582
15100.00000	92.48797	-739.31209	92.48797
15150.00000	92.91379	-741.71655	92.91379
15200.00000	93.11269	-742.16128	93.11269
15250.00000	93.35430	-744.85150	93.35430
15300.00000	93.91909	-746.82795	93.91909
15350.00000	94.25595	-748.97797	94.25595
15400.00000	94.47177	-749.21900	94.47177
15450.00000	94.72071	-750.64112	94.72071
15500.00000	95.08057	-752.70949	95.08057
15550.00000	95.36992	-755.07978	95.36992
15600.00000	95.66825	-757.51750	95.66825
15650.00000	96.14627	-757.75526	96.14627
15700.00000	96.34377	-760.79472	96.34377
15750.00000	96.68770	-761.80944	96.68770
15800.00000	96.95241	-762.98522	96.95241
15850.00000	97.26500	-765.03464	97.26500
15900.00000	97.47960	-767.77956	97.47960
15950.00000	97.87178	-770.02952	97.87178
16000.00000	98.18551	-772.09501	98.18551
16050.00000	98.60464	-774.69271	98.60464
16100.00000	98.72424	-776.98373	98.72424
16150.00000	98.90923	-779.26870	98.90923
16200.00000	99.18101	-782.76724	99.18101
16250.00000	99.42273	-785.55101	99.42273
16300.00000	99.84171	-788.41371	99.84171
16350.00000	100.02130	-790.97775	100.02130
16400.00000	100.25037	-793.14034	100.25037
16450.00000	100.44189	-795.66403	100.44189
16500.00000	100.58139	-798.43003	100.58139
16550.00000	100.79508	-801.79386	100.79508
16600.00000	101.03743	-804.46117	101.03743
16650.00000	101.17528	-806.81229	101.17528
16700.00000	101.41184	-809.22767	101.41184
16750.00000	101.46248	-812.27044	101.46248
16800.00000	101.70067	-815.24011	101.70067
16850.00000	101.92277	-817.87692	101.92277
16900.00000	102.13306	-820.90769	102.13306
16950.00000	102.28960	-823.40905	102.28960
17000.00000	102.38391	-826.35172	102.38391
17050.00000	102.56078	-828.54315	102.56078
17100.00000	102.61963	-830.57326	102.61963
17150.00000	102.93080	-834.40190	102.93080
17200.00000	103.09087	-836.95736	103.09087
17250.00000	103.16951	-840.38913	103.16951
17300.00000	103.41080	-843.15055	103.41080
17350.00000	103.41319	-845.91238	103.41319
17400.00000	103.62476	-849.06229	103.62476
17450.00000	103.68499	-852.42382	103.68499
17500.00000	103.81436	-855.46205	103.81436
17550.00000	103.96571	-858.54688	103.96571
17600.00000	104.16236	-861.06671	104.16236
17650.00000	104.24233	-865.06268	104.24233
17700.00000	104.29031	-868.24857	104.29031
17750.00000	104.53200	-870.85697	104.53200
17800.00000	104.48634	-874.60151	104.48634
17850.00000	104.59510	-877.45719	104.59510
17900.00000	104.60642	-880.60336	104.60642
17950.00000	104.76433	-884.17933	104.76433
18000.00000	104.80395	-887.86437	104.80395
18050.00000	104.99437	-890.64530	104.99437
18100.00000	104.95493	-894.33641	104.95493
18150.00000	104.97296	-896.98153	104.97296
18200.00000	104.95521	-900.92315	104.95521
18250.00000	105.02574	-903.50446	105.02574
18300.00000	105.11032	-906.68939	105.11032
18350.00000	105.09878	-909.94517	105.09878
18400.00000	105.05041	-913.31055	105.05041
18450.00000	104.99896	-917.59644	104.99896
18500.00000	105.03625	-920.60583	105.03625
18550.00000	104.98572	-923.39548	104.98572
18600.00000	105.04873	-926.94127	105.04873
18650.00000	104.87800	-929.90042	104.87800
18700.00000	104.82945	-933.14109	104.82945
18750.00000	104.81939	-936.18354	104.81939
18800.00000	104.88728	-938.62478	104.88728
18850.00000	104.71747	-941.77394	104.71747
18900.00000	104.62951	-944.58321	104.62951
18950.00000	104.60941	-947.91049	104.60941
19000.00000	104.41617	-950.22084	104.41617
19050.00000	104.50219	-952.98727	104.50219
19100.00000	104.39842	-955.50569	104.39842
19150.00000	104.44416	-958.03778	104.44416
19200.00000	104.40032	-960.18396	104.40032
19250.00000	104.31948	-963.91622	104.31948
19300.00000	104.23519	-965.89861	104.23519
19350.00000	104.19628	-968.64947	104.19628
19400.00000	104.11379	-971.06712	104.11379
19450.00000	104.18713	-973.16985	104.18713
19500.00000	104.03902	-976.42555	104.03902
19550.00000	104.06161	-978.85828	104.06161
19600.00000	104.09456	-981.96251	104.09456
19650.00000	103.98559	-984.12991	103.98559
19700.00000	103.84966	-986.79168	103.84966
19750.00000	103.80648	-988.83037	103.80648
19800.00000	103.84463	-992.30892	103.84463
19850.00000	103.84560	-994.65446	103.84560
19900.00000	103.73496	-998.02780	103.73496
19950.00000	103.65822	-1000.52576	103.65822
20000.00000	103.62556	-1003.11472	103.62556
20050.00000	103.58193	-1005.79401	103.58193
20100.00000	103.42946	-1008.59981	103.42946
20150.00000	103.40769	-1010.32910	103.40769
20200.00000	103.27923	-1013.64551	103.27923
20250.00000	103.14533	-1015.98981	103.14533
20300.00000	102.96814	-1018.59620	102.96814
20350.00000	102.94068	-1021.15981	102.94068
20400.00000	102.74657	-1022.74689	102.74657
20450.00000	102.54061	-1025.01703	102.54061
20500.00000	102.48503	-1027.52255	102.48503
20550.00000	102.14716	-1028.90981	102.14716
20600.00000	102.08514	-1030.47135	102.08514
20650.00000	101.96570	-1032.27683	101.96570
20700.00000	101.77632	-1033.78978	101.77632
20750.00000	101.70942	-1035.04525	101.70942
20800.00000	101.55428	-1035.97198	101.55428
20850.00000	101.51507	-1037.19922	101.51507
20900.00000	101.40186	-1038.18379	101.40186
20950.00000	101.32974	-1038.54355	101.32974
21000.00000	101.32694	-1039.26589	101.32694
21050.00000	101.47986	-1039.66377	101.47986
21100.00000	101.53031	-1040.16749	101.53031
21150.00000	101.69954	-1041.24843	101.69954
21200.00000	101.88815	-1041.95901	101.88815
21250.00000	102.05081	-1044.28061	102.05081
21300.00000	102.30246	-1045.33377	102.30246
21350.00000	102.48004	-1046.90881	102.48004
21400.00000	102.63954	-1049.47227	102.63954
21450.00000	102.86411	-1051.74171	102.86411
21500.00000	103.01112	-1054.50671	103.01112
21550.00000	103.06854	-1056.85163	103.06854
21600.00000	103.26173	-1059.75981	103.26173
21650.00000	103.30651	-1062.73025	103.30651
21700.00000	103.35779	-1065.33814	103.35779
21750.00000	103.42937	-1068.29868	103.42937
21800.00000	103.45494	-1071.11107	103.45494
21850.00000	103.38329	-1073.77126	103.38329
21900.00000	103.40817	-1076.25504	103.40817
21950.00000	103.37316	-1078.68844	103.37316
22000.00000	103.42344	-1081.34101	103.42344
22050.00000	103.38815	-1083.37105	103.38815
22100.00000	103.32957	-1085.87765	103.32957
22150.00000	103.30673	-1088.13581	103.30673
22200.00000	103.35267	-1090.52699	103.35267
22250.00000	103.27426	-1092.36980	103.27426
22300.00000	103.18199	-1094.62684	103.18199
22350.00000	103.30294	-1096.94577	103.30294
22400.00000	103.30470	-1099.30341	103.30470
22450.00000	103.22799	-1101.56654	103.22799
22500.00000	103.16260	-1102.71997	103.16260
22550.00000	103.21834	-1105.39047	103.21834
22600.00000	103.18658	-1108.39972	103.18658
