---ACOUSTIC CALIBRATION---
Filename: C:\Data\CL0809 DATA\CL0809500\RightSecondary.calib
Date: 8/9/2019 3:24:48 PM
Format: 4
Probe Tube Correction File: C:\Data\Probe Tube Calibrations\74_ProbeTube.calib
Experiment VIs: 2128
EPL_CFTS.exe V15.0.1f5 (2015)
DAQmx V15.1

Attenuation (dB): 40.000000
Min Freq (Hz): 50.000000
Max Freq (Hz): 99950.000000
Freq Step (Hz): 50.000000
Sample Rate (Hz): 200000.000000
[Smoothing]
Method=None
MA.Iterations=0
MA.Length=0
Loess.Length=0
Loess.Type=Linear
Loess.Robust=FALSE


Freq(Hz)	Mag(dB)	Phase(deg)	Unsmoothed(dB)

50.00000	98.71941	343.76635	98.71941
100.00000	67.37048	408.65537	67.37048
150.00000	60.90097	495.53922	60.90097
200.00000	59.36630	819.20121	59.36630
250.00000	50.48331	1035.79103	50.48331
300.00000	67.56412	1197.64178	67.56412
350.00000	65.39062	1377.27431	65.39062
400.00000	63.60490	1447.31943	63.60490
450.00000	68.78661	1476.78353	68.78661
500.00000	72.82739	1586.28334	72.82739
550.00000	78.90213	1521.61754	78.90213
600.00000	77.25931	1476.49552	77.25931
650.00000	84.73523	1466.96300	84.73523
700.00000	83.98243	1467.26245	83.98243
750.00000	88.27833	1432.77277	88.27833
800.00000	89.65399	1413.99750	89.65399
850.00000	88.69885	1402.41766	88.69885
900.00000	89.26314	1395.50508	89.26314
950.00000	90.64416	1379.67566	90.64416
1000.00000	90.76244	1371.45637	90.76244
1050.00000	90.53547	1356.20939	90.53547
1100.00000	89.66091	1347.37711	89.66091
1150.00000	88.71697	1347.07806	88.71697
1200.00000	88.37675	1353.16757	88.37675
1250.00000	89.40616	1357.00883	89.40616
1300.00000	90.46359	1355.75172	90.46359
1350.00000	91.27977	1354.06111	91.27977
1400.00000	92.15667	1353.63759	92.15667
1450.00000	93.18965	1351.73218	93.18965
1500.00000	94.53569	1349.59465	94.53569
1550.00000	95.82137	1343.34861	95.82137
1600.00000	97.17926	1338.59332	97.17926
1650.00000	98.31719	1333.68292	98.31719
1700.00000	102.42180	1316.82127	102.42180
1750.00000	99.51144	1295.72819	99.51144
1800.00000	99.27601	1290.35121	99.27601
1850.00000	99.05619	1282.77413	99.05619
1900.00000	98.87434	1275.36923	98.87434
1950.00000	98.17111	1269.88583	98.17111
2000.00000	97.40336	1265.66590	97.40336
2050.00000	96.50306	1266.42209	96.50306
2100.00000	96.96586	1272.49699	96.96586
2150.00000	98.22717	1267.74805	98.22717
2200.00000	98.42791	1257.95649	98.42791
2250.00000	97.76826	1252.78306	97.76826
2300.00000	97.49348	1251.40163	97.49348
2350.00000	97.46200	1248.32576	97.46200
2400.00000	97.52968	1245.75469	97.52968
2450.00000	97.26887	1241.46512	97.26887
2500.00000	96.71038	1242.08357	96.71038
2550.00000	96.87944	1242.00618	96.87944
2600.00000	97.04243	1241.13287	97.04243
2650.00000	97.15779	1240.79932	97.15779
2700.00000	97.36037	1238.89345	97.36037
2750.00000	97.53948	1237.90274	97.53948
2800.00000	97.82786	1235.94237	97.82786
2850.00000	98.11318	1234.23269	98.11318
2900.00000	98.44317	1231.94497	98.44317
2950.00000	98.74258	1229.48953	98.74258
3000.00000	98.96162	1227.51652	98.96162
3050.00000	99.21369	1224.68906	99.21369
3100.00000	99.43240	1221.82571	99.43240
3150.00000	99.46240	1219.37219	99.46240
3200.00000	99.63713	1216.48703	99.63713
3250.00000	99.83910	1214.42475	99.83910
3300.00000	99.89053	1212.33673	99.89053
3350.00000	100.15047	1210.68758	100.15047
3400.00000	100.26702	1209.03844	100.26702
3450.00000	100.44172	1208.09430	100.44172
3500.00000	100.67539	1207.44207	100.67539
3550.00000	101.38676	1205.22763	101.38676
3600.00000	101.47685	1201.43638	101.47685
3650.00000	101.75983	1200.81166	101.75983
3700.00000	101.96419	1199.27425	101.96419
3750.00000	102.43640	1196.67645	102.43640
3800.00000	103.23373	1195.37487	103.23373
3850.00000	103.79169	1186.77087	103.79169
3900.00000	104.16954	1179.71884	104.16954
3950.00000	103.42601	1177.27295	103.42601
4000.00000	103.15270	1179.06739	103.15270
4050.00000	103.59640	1180.40524	103.59640
4100.00000	104.32137	1180.67444	104.32137
4150.00000	105.96458	1177.78841	105.96458
4200.00000	106.93766	1173.11821	106.93766
4250.00000	107.05746	1160.57628	107.05746
4300.00000	107.17949	1157.58436	107.17949
4350.00000	107.60386	1153.01290	107.60386
4400.00000	107.99769	1146.90722	107.99769
4450.00000	108.10901	1139.77481	108.10901
4500.00000	108.23779	1133.69553	108.23779
4550.00000	108.16201	1128.40741	108.16201
4600.00000	108.23513	1123.02858	108.23513
4650.00000	108.27407	1118.14212	108.27407
4700.00000	108.26956	1113.19725	108.26956
4750.00000	108.27319	1108.46785	108.27319
4800.00000	108.30776	1103.99330	108.30776
4850.00000	108.34215	1099.18307	108.34215
4900.00000	108.37530	1093.67361	108.37530
4950.00000	108.37265	1088.44679	108.37265
5000.00000	108.31115	1082.77824	108.31115
5050.00000	108.20049	1077.07108	108.20049
5100.00000	108.00171	1071.23209	108.00171
5150.00000	107.67084	1065.41558	107.67084
5200.00000	107.06881	1059.95184	107.06881
5250.00000	106.21230	1059.42273	106.21230
5300.00000	106.70160	1060.11731	106.70160
5350.00000	106.98270	1053.88406	106.98270
5400.00000	106.78747	1047.84408	106.78747
5450.00000	106.47046	1043.01382	106.47046
5500.00000	106.15820	1038.50131	106.15820
5550.00000	105.85842	1034.55696	105.85842
5600.00000	105.53298	1030.21823	105.53298
5650.00000	105.09225	1026.70762	105.09225
5700.00000	104.69123	1023.33911	104.69123
5750.00000	104.34176	1020.33899	104.34176
5800.00000	103.98236	1017.75677	103.98236
5850.00000	103.62219	1014.99846	103.62219
5900.00000	103.28005	1012.39387	103.28005
5950.00000	102.95868	1010.09067	102.95868
6000.00000	102.65484	1007.82625	102.65484
6050.00000	102.34113	1005.38941	102.34113
6100.00000	102.03369	1003.14288	102.03369
6150.00000	101.66753	1000.88512	101.66753
6200.00000	101.33566	999.18708	101.33566
6250.00000	101.00812	997.51664	101.00812
6300.00000	100.69075	996.04207	100.69075
6350.00000	100.39836	994.64798	100.39836
6400.00000	100.11059	993.45350	100.11059
6450.00000	99.83166	992.72717	99.83166
6500.00000	99.59723	992.06198	99.59723
6550.00000	99.42676	991.52746	99.42676
6600.00000	99.31150	991.19249	99.31150
6650.00000	99.25804	990.65395	99.25804
6700.00000	99.30283	989.78280	99.30283
6750.00000	99.37369	988.33780	99.37369
6800.00000	99.40907	986.42579	99.40907
6850.00000	99.40848	984.00950	99.40848
6900.00000	99.33119	981.41305	99.33119
6950.00000	99.21576	978.93235	99.21576
7000.00000	99.02766	976.51880	99.02766
7050.00000	98.84074	974.17594	98.84074
7100.00000	98.60043	972.10794	98.60043
7150.00000	98.34955	970.38993	98.34955
7200.00000	98.04765	968.84092	98.04765
7250.00000	97.71644	967.71915	97.71644
7300.00000	97.40707	966.97397	97.40707
7350.00000	97.10720	966.69312	97.10720
7400.00000	96.83092	967.03240	96.83092
7450.00000	96.67142	967.74833	96.67142
7500.00000	96.55710	968.71634	96.55710
7550.00000	96.55916	969.43642	96.55916
7600.00000	96.61790	970.14670	96.61790
7650.00000	96.78801	970.73080	96.78801
7700.00000	97.03849	970.70419	97.03849
7750.00000	97.25576	970.37367	97.25576
7800.00000	97.48794	969.73019	97.48794
7850.00000	97.72923	968.51392	97.72923
7900.00000	97.94319	966.90655	97.94319
7950.00000	98.13162	965.56118	98.13162
8000.00000	98.31425	963.93724	98.31425
8050.00000	98.46523	962.18861	98.46523
8100.00000	98.65098	960.40365	98.65098
8150.00000	98.78490	958.77666	98.78490
8200.00000	98.95245	956.75411	98.95245
8250.00000	99.08162	954.96963	99.08162
8300.00000	99.25180	952.92044	99.25180
8350.00000	99.40235	951.04242	99.40235
8400.00000	99.54539	948.95713	99.54539
8450.00000	99.67835	946.84311	99.67835
8500.00000	99.79945	944.67314	99.79945
8550.00000	99.91970	942.78161	99.91970
8600.00000	100.06037	940.52439	100.06037
8650.00000	100.19579	938.53996	100.19579
8700.00000	100.33874	936.22579	100.33874
8750.00000	100.47052	933.95393	100.47052
8800.00000	100.59439	931.49910	100.59439
8850.00000	100.78276	929.01284	100.78276
8900.00000	100.85492	926.60012	100.85492
8950.00000	100.99835	924.25604	100.99835
9000.00000	101.09894	921.67158	101.09894
9050.00000	101.18622	918.97716	101.18622
9100.00000	101.25026	916.33533	101.25026
9150.00000	101.39256	913.94464	101.39256
9200.00000	101.50997	911.09394	101.50997
9250.00000	101.55004	908.03593	101.55004
9300.00000	101.64808	905.04087	101.64808
9350.00000	101.68432	902.15532	101.68432
9400.00000	101.77256	898.96823	101.77256
9450.00000	101.82915	896.01539	101.82915
9500.00000	101.87607	892.69233	101.87607
9550.00000	101.87924	889.28244	101.87924
9600.00000	101.88274	886.17331	101.88274
9650.00000	101.89865	883.24349	101.89865
9700.00000	101.87357	880.01511	101.87357
9750.00000	101.85317	876.87859	101.85317
9800.00000	101.79698	874.12249	101.79698
9850.00000	101.77129	871.05409	101.77129
9900.00000	101.73340	868.43787	101.73340
9950.00000	101.63615	865.76411	101.63615
10000.00000	101.62807	863.37006	101.62807
10050.00000	101.57814	860.44457	101.57814
10100.00000	101.51210	857.66198	101.51210
10150.00000	101.37858	854.92354	101.37858
10200.00000	101.26528	852.65213	101.26528
10250.00000	101.12596	850.55599	101.12596
10300.00000	101.05426	848.30613	101.05426
10350.00000	100.97042	846.20211	100.97042
10400.00000	100.84835	844.04149	100.84835
10450.00000	100.81256	841.86035	100.81256
10500.00000	100.78966	839.58697	100.78966
10550.00000	100.73981	837.44576	100.73981
10600.00000	100.77180	834.90432	100.77180
10650.00000	100.75555	832.63807	100.75555
10700.00000	100.80215	830.10880	100.80215
10750.00000	100.82527	827.61916	100.82527
10800.00000	100.87646	824.77237	100.87646
10850.00000	100.92424	822.10199	100.92424
10900.00000	100.97258	819.27510	100.97258
10950.00000	100.98949	816.23798	100.98949
11000.00000	101.04105	813.27315	101.04105
11050.00000	100.99352	810.45497	100.99352
11100.00000	101.04435	807.41356	101.04435
11150.00000	100.99866	804.12516	100.99866
11200.00000	100.96080	801.18793	100.96080
11250.00000	100.86224	797.74955	100.86224
11300.00000	100.79951	794.40782	100.79951
11350.00000	100.68719	790.81397	100.68719
11400.00000	100.51098	787.18648	100.51098
11450.00000	100.36693	783.65157	100.36693
11500.00000	100.20252	779.97880	100.20252
11550.00000	100.01621	776.17266	100.01621
11600.00000	99.77466	772.68618	99.77466
11650.00000	99.53563	769.15197	99.53563
11700.00000	99.34390	765.65634	99.34390
11750.00000	99.07512	762.59563	99.07512
11800.00000	98.85269	759.66091	98.85269
11850.00000	98.60449	756.79253	98.60449
11900.00000	98.29512	754.50901	98.29512
11950.00000	98.08160	752.21149	98.08160
12000.00000	97.84188	750.44130	97.84188
12050.00000	97.55703	748.87311	97.55703
12100.00000	97.23208	747.26965	97.23208
12150.00000	96.91755	745.29806	96.91755
12200.00000	96.66623	743.69780	96.66623
12250.00000	96.37897	742.09222	96.37897
12300.00000	95.98401	740.21106	95.98401
12350.00000	95.69771	738.44438	95.69771
12400.00000	95.31639	736.25964	95.31639
12450.00000	95.12749	734.17704	95.12749
12500.00000	94.87433	732.84253	94.87433
12550.00000	94.60139	731.57281	94.60139
12600.00000	94.50179	728.50736	94.50179
12650.00000	94.32713	727.24234	94.32713
12700.00000	93.98615	724.83709	93.98615
12750.00000	93.73741	724.01472	93.73741
12800.00000	93.56476	722.07718	93.56476
12850.00000	93.17406	721.06772	93.17406
12900.00000	92.81442	719.01591	92.81442
12950.00000	92.64394	716.40336	92.64394
13000.00000	92.36659	713.74732	92.36659
13050.00000	92.09216	711.00726	92.09216
13100.00000	91.92650	707.50783	91.92650
13150.00000	91.80345	704.48852	91.80345
13200.00000	91.72742	700.08992	91.72742
13250.00000	91.99734	694.55099	91.99734
13300.00000	92.52486	694.76247	92.52486
13350.00000	93.24251	693.28971	93.24251
13400.00000	94.02386	697.05892	94.02386
13450.00000	94.43562	706.50701	94.43562
13500.00000	93.72061	720.09331	93.72061
13550.00000	92.29180	726.33905	92.29180
13600.00000	90.24759	729.43958	90.24759
13650.00000	88.22033	728.34977	88.22033
13700.00000	86.71136	723.89272	86.71136
13750.00000	85.47515	716.94106	85.47515
13800.00000	84.97104	709.19721	84.97104
13850.00000	84.84758	701.74235	84.84758
13900.00000	84.74448	693.40438	84.74448
13950.00000	85.29641	687.40488	85.29641
14000.00000	86.45266	685.10959	86.45266
14050.00000	87.87358	686.31918	87.87358
14100.00000	89.72154	692.43059	89.72154
14150.00000	90.77467	707.47697	90.77467
14200.00000	90.66600	725.43710	90.66600
14250.00000	89.22786	739.17497	89.22786
14300.00000	87.58153	745.89473	87.58153
14350.00000	86.23364	745.77522	86.23364
14400.00000	85.41065	745.21966	85.41065
14450.00000	84.61678	743.05388	84.61678
14500.00000	84.54306	740.19484	84.54306
14550.00000	84.58835	734.78737	84.58835
14600.00000	84.75143	732.01790	84.75143
14650.00000	85.19488	727.94379	85.19488
14700.00000	85.96417	722.83834	85.96417
14750.00000	86.80440	722.83109	86.80440
14800.00000	87.93044	723.43868	87.93044
14850.00000	89.02916	724.03638	89.02916
14900.00000	90.31995	727.12699	90.31995
14950.00000	90.86944	730.64529	90.86944
15000.00000	91.32711	736.98058	91.32711
15050.00000	91.27327	742.42075	91.27327
15100.00000	90.93706	744.98436	90.93706
15150.00000	90.81599	744.34877	90.81599
15200.00000	90.76097	742.86014	90.76097
15250.00000	90.67834	740.35069	90.67834
15300.00000	90.96294	736.95082	90.96294
15350.00000	91.23435	732.92778	91.23435
15400.00000	91.55427	728.02781	91.55427
15450.00000	92.12432	723.20642	92.12432
15500.00000	92.74561	721.29864	92.74561
15550.00000	93.39183	718.74233	93.39183
15600.00000	94.29604	717.09306	94.29604
15650.00000	94.93938	716.51687	94.93938
15700.00000	95.24762	716.57813	95.24762
15750.00000	95.63645	715.84622	95.63645
15800.00000	95.71231	716.09784	95.71231
15850.00000	95.80175	715.33291	95.80175
15900.00000	95.70466	713.04626	95.70466
15950.00000	95.68882	710.91711	95.68882
16000.00000	95.71665	707.82372	95.71665
16050.00000	95.92378	704.57178	95.92378
16100.00000	96.10694	701.63352	96.10694
16150.00000	96.44449	698.18760	96.44449
16200.00000	96.72638	695.20050	96.72638
16250.00000	97.09750	692.07552	97.09750
16300.00000	97.54114	689.76390	97.54114
16350.00000	97.91921	687.97500	97.91921
16400.00000	98.14246	686.30330	98.14246
16450.00000	98.47207	684.84514	98.47207
16500.00000	98.63077	682.73589	98.63077
16550.00000	98.67082	680.91685	98.67082
16600.00000	98.81024	678.17986	98.81024
16650.00000	98.88717	675.63295	98.88717
16700.00000	98.95127	672.69411	98.95127
16750.00000	99.08706	669.67130	99.08706
16800.00000	99.21400	667.03929	99.21400
16850.00000	99.44176	663.92242	99.44176
16900.00000	99.64782	661.62443	99.64782
16950.00000	99.79433	658.76089	99.79433
17000.00000	99.98752	656.70475	99.98752
17050.00000	100.14437	654.07228	100.14437
17100.00000	100.31986	652.26366	100.31986
17150.00000	100.41809	650.33790	100.41809
17200.00000	100.46460	648.03800	100.46460
17250.00000	100.54385	645.75338	100.54385
17300.00000	100.63665	643.07662	100.63665
17350.00000	100.73443	640.57838	100.73443
17400.00000	100.85424	637.80211	100.85424
17450.00000	101.00737	634.84005	101.00737
17500.00000	101.11368	632.39575	101.11368
17550.00000	101.26558	629.60929	101.26558
17600.00000	101.46185	627.40353	101.46185
17650.00000	101.59252	625.00458	101.59252
17700.00000	101.70485	622.80133	101.70485
17750.00000	101.84913	620.66237	101.84913
17800.00000	101.95835	618.49941	101.95835
17850.00000	102.07471	616.06201	102.07471
17900.00000	102.23031	613.79753	102.23031
17950.00000	102.30660	611.28977	102.30660
18000.00000	102.41975	608.78182	102.41975
18050.00000	102.55959	606.15771	102.55959
18100.00000	102.66969	603.68155	102.66969
18150.00000	102.82580	600.88111	102.82580
18200.00000	102.92464	598.12900	102.92464
18250.00000	103.05962	595.52916	103.05962
18300.00000	103.18475	592.88640	103.18475
18350.00000	103.28490	590.18409	103.28490
18400.00000	103.40805	587.35662	103.40805
18450.00000	103.52744	584.71872	103.52744
18500.00000	103.66613	581.98053	103.66613
18550.00000	103.76461	579.07855	103.76461
18600.00000	103.85407	576.37948	103.85407
18650.00000	103.96459	573.51692	103.96459
18700.00000	104.08597	570.70114	104.08597
18750.00000	104.13939	567.79557	104.13939
18800.00000	104.19230	564.84233	104.19230
18850.00000	104.27282	562.00397	104.27282
18900.00000	104.27808	559.34091	104.27808
18950.00000	104.33006	556.28441	104.33006
19000.00000	104.36841	553.49598	104.36841
19050.00000	104.42381	550.50522	104.42381
19100.00000	104.43892	547.73744	104.43892
19150.00000	104.46565	545.12217	104.46565
19200.00000	104.52171	542.32539	104.52171
19250.00000	104.51883	539.92760	104.51883
19300.00000	104.57625	537.30045	104.57625
19350.00000	104.58822	534.38933	104.58822
19400.00000	104.59105	531.97900	104.59105
19450.00000	104.63027	529.16937	104.63027
19500.00000	104.65988	526.76818	104.65988
19550.00000	104.72102	524.28184	104.72102
19600.00000	104.71963	521.79209	104.71963
19650.00000	104.76553	519.28776	104.76553
19700.00000	104.80722	516.61175	104.80722
19750.00000	104.84177	514.24369	104.84177
19800.00000	104.90783	511.97352	104.90783
19850.00000	104.93823	509.39657	104.93823
19900.00000	105.00547	506.69541	105.00547
19950.00000	105.04545	504.34509	105.04545
20000.00000	105.08947	501.40607	105.08947
20050.00000	105.15128	498.94264	105.15128
20100.00000	105.20707	496.28736	105.20707
20150.00000	105.27314	493.35183	105.27314
20200.00000	105.34467	490.87506	105.34467
20250.00000	105.38981	488.32137	105.38981
20300.00000	105.45065	485.50475	105.45065
20350.00000	105.48664	482.78213	105.48664
20400.00000	105.52747	480.08886	105.52747
20450.00000	105.58238	477.21265	105.58238
20500.00000	105.64856	474.33948	105.64856
20550.00000	105.64958	471.26117	105.64958
20600.00000	105.69409	468.56620	105.69409
20650.00000	105.75384	465.60715	105.75384
20700.00000	105.79054	462.84433	105.79054
20750.00000	105.76972	459.87544	105.76972
20800.00000	105.80323	456.91576	105.80323
20850.00000	105.79420	453.67066	105.79420
20900.00000	105.77716	450.96333	105.77716
20950.00000	105.78558	447.82542	105.78558
21000.00000	105.80422	444.68648	105.80422
21050.00000	105.78483	441.77965	105.78483
21100.00000	105.78193	438.77554	105.78193
21150.00000	105.74916	436.04791	105.74916
21200.00000	105.71345	433.13636	105.71345
21250.00000	105.62592	430.11166	105.62592
21300.00000	105.57546	426.96760	105.57546
21350.00000	105.53742	424.32439	105.53742
21400.00000	105.45274	421.01631	105.45274
21450.00000	105.45395	418.38858	105.45395
21500.00000	105.40317	415.44731	105.40317
21550.00000	105.34929	412.74333	105.34929
21600.00000	105.29401	409.98695	105.29401
21650.00000	105.21418	407.37561	105.21418
21700.00000	105.09661	404.45012	105.09661
21750.00000	105.03538	401.60696	105.03538
21800.00000	104.95028	398.73341	104.95028
21850.00000	104.87883	396.29204	104.87883
21900.00000	104.77132	393.68911	104.77132
21950.00000	104.67385	391.00075	104.67385
22000.00000	104.54058	388.63819	104.54058
22050.00000	104.44284	386.63292	104.44284
22100.00000	104.34913	384.66824	104.34913
22150.00000	104.27300	382.35936	104.27300
22200.00000	104.24255	380.14964	104.24255
22250.00000	104.21609	377.78454	104.21609
22300.00000	104.18770	375.72552	104.18770
22350.00000	104.10457	373.25121	104.10457
22400.00000	104.08916	370.72190	104.08916
22450.00000	104.07049	368.56384	104.07049
22500.00000	104.04043	366.29380	104.04043
22550.00000	104.03374	363.89410	104.03374
22600.00000	103.99597	361.66726	103.99597
22650.00000	103.98440	359.41542	103.98440
22700.00000	103.96805	356.94057	103.96805
22750.00000	103.92641	354.25717	103.92641
22800.00000	103.93677	351.70283	103.93677
22850.00000	103.88691	349.00746	103.88691
22900.00000	103.89615	346.80583	103.89615
22950.00000	103.91425	344.40953	103.91425
23000.00000	103.89955	341.86565	103.89955
23050.00000	103.82839	339.24033	103.82839
23100.00000	103.84766	336.37161	103.84766
23150.00000	103.77879	333.56268	103.77879
23200.00000	103.76474	330.34335	103.76474
