---ACOUSTIC CALIBRATION---
Filename: C:\Data\CL0809 DATA\CL0809500\RightPrimary.calib
Date: 8/9/2019 3:24:32 PM
Format: 4
Probe Tube Correction File: C:\Data\Probe Tube Calibrations\74_ProbeTube.calib
Experiment VIs: 2128
EPL_CFTS.exe V15.0.1f5 (2015)
DAQmx V15.1

Attenuation (dB): 40.000000
Min Freq (Hz): 50.000000
Max Freq (Hz): 99950.000000
Freq Step (Hz): 50.000000
Sample Rate (Hz): 200000.000000
[Smoothing]
Method=None
MA.Iterations=0
MA.Length=0
Loess.Length=0
Loess.Type=Linear
Loess.Robust=FALSE


Freq(Hz)	Mag(dB)	Phase(deg)	Unsmoothed(dB)

50.00000	89.93476	23.67754	89.93476
100.00000	68.99964	-105.35945	68.99964
150.00000	68.08654	92.12762	68.08654
200.00000	62.26795	200.60564	62.26795
250.00000	54.00831	412.23660	54.00831
300.00000	61.78575	515.60778	61.78575
350.00000	53.38769	641.17283	53.38769
400.00000	52.43808	737.30417	52.43808
450.00000	56.57776	755.51574	56.57776
500.00000	54.10210	836.84000	54.10210
550.00000	66.56873	805.43938	66.56873
600.00000	64.78833	791.12667	64.78833
650.00000	71.10314	751.39190	71.10314
700.00000	72.84729	770.57436	72.84729
750.00000	75.53692	734.52058	75.53692
800.00000	77.87153	722.48251	77.87153
850.00000	76.55478	719.12844	76.55478
900.00000	77.09126	729.01264	77.09126
950.00000	80.11446	727.73505	80.11446
1000.00000	82.29357	728.53418	82.29357
1050.00000	85.55430	719.49821	85.55430
1100.00000	88.06470	704.44999	88.06470
1150.00000	89.51277	690.18876	89.51277
1200.00000	90.21736	677.86375	90.21736
1250.00000	90.60415	668.87834	90.60415
1300.00000	91.79602	663.88208	91.79602
1350.00000	93.32421	651.65690	93.32421
1400.00000	93.74254	637.60721	93.74254
1450.00000	93.68173	626.69609	93.68173
1500.00000	93.62066	620.28612	93.62066
1550.00000	93.74141	614.48578	93.74141
1600.00000	94.46517	610.74753	94.46517
1650.00000	95.16717	607.44871	95.16717
1700.00000	98.91672	591.88720	98.91672
1750.00000	95.92050	571.24024	95.92050
1800.00000	95.40606	566.22590	95.40606
1850.00000	95.03092	559.75106	95.03092
1900.00000	94.95046	554.57049	94.95046
1950.00000	94.51556	550.06000	94.51556
2000.00000	94.26663	547.27365	94.26663
2050.00000	94.55711	544.77751	94.55711
2100.00000	95.05867	539.23552	95.05867
2150.00000	95.37513	530.95016	95.37513
2200.00000	95.04919	520.48253	95.04919
2250.00000	94.08442	515.30503	94.08442
2300.00000	93.76609	513.93477	93.76609
2350.00000	93.95281	508.59837	93.95281
2400.00000	93.97402	502.64659	93.97402
2450.00000	93.47799	494.39317	93.47799
2500.00000	92.55492	491.20345	92.55492
2550.00000	92.21170	487.76337	92.21170
2600.00000	91.77183	484.58860	91.77183
2650.00000	91.17360	481.60933	91.17360
2700.00000	90.69919	478.81432	90.69919
2750.00000	90.18997	476.65460	90.18997
2800.00000	89.81966	474.56207	89.81966
2850.00000	89.33317	473.39213	89.33317
2900.00000	89.02758	472.26323	89.02758
2950.00000	88.88613	470.73527	88.88613
3000.00000	88.63806	468.78593	88.63806
3050.00000	88.30005	466.79231	88.30005
3100.00000	87.89641	464.23292	87.89641
3150.00000	87.29611	462.07624	87.29611
3200.00000	86.80157	460.59446	86.80157
3250.00000	86.33888	459.77670	86.33888
3300.00000	85.86736	459.43864	85.86736
3350.00000	85.44607	458.84784	85.44607
3400.00000	84.93557	457.54772	84.93557
3450.00000	84.39926	457.15056	84.39926
3500.00000	83.49698	457.32367	83.49698
3550.00000	82.93983	457.91609	82.93983
3600.00000	81.54628	457.50913	81.54628
3650.00000	80.27433	464.43837	80.27433
3700.00000	78.65738	472.71546	78.65738
3750.00000	78.11421	484.93249	78.11421
3800.00000	78.42257	501.31292	78.42257
3850.00000	79.41751	509.80811	79.41751
3900.00000	80.67951	516.76873	80.67951
3950.00000	80.96836	523.14952	80.96836
4000.00000	81.83233	533.53453	81.83233
4050.00000	83.37099	542.97998	83.37099
4100.00000	85.15790	547.96661	85.15790
4150.00000	87.70738	549.09994	87.70738
4200.00000	89.51041	548.83104	89.51041
4250.00000	90.50732	540.23669	90.50732
4300.00000	91.33510	541.11463	91.33510
4350.00000	92.82188	541.32075	92.82188
4400.00000	94.34371	536.83277	94.34371
4450.00000	95.33173	530.48219	95.33173
4500.00000	96.11334	524.82014	96.11334
4550.00000	96.48098	520.73101	96.48098
4600.00000	96.99160	518.82891	96.99160
4650.00000	97.85161	518.21219	97.85161
4700.00000	98.85097	516.55041	98.85097
4750.00000	99.91512	513.94900	99.91512
4800.00000	101.03790	510.84182	101.03790
4850.00000	102.17323	507.01199	102.17323
4900.00000	103.35245	502.06842	103.35245
4950.00000	104.56655	496.96801	104.56655
5000.00000	105.84313	490.90766	105.84313
5050.00000	107.25435	483.93261	107.25435
5100.00000	108.87520	475.42314	108.87520
5150.00000	110.83146	463.84056	110.83146
5200.00000	113.22435	444.53735	113.22435
5250.00000	114.82802	407.44393	114.82802
5300.00000	111.62303	364.22320	111.62303
5350.00000	105.83969	348.11090	105.83969
5400.00000	101.26161	353.16310	101.26161
5450.00000	98.53772	362.60730	98.53772
5500.00000	96.05977	373.46062	96.05977
5550.00000	94.40255	395.27688	94.40255
5600.00000	95.58718	417.28723	95.58718
5650.00000	97.88767	425.99654	97.88767
5700.00000	99.71715	424.93245	99.71715
5750.00000	100.76910	420.91729	100.76910
5800.00000	101.27178	418.24812	101.27178
5850.00000	101.65633	417.04177	101.65633
5900.00000	102.14712	416.57353	102.14712
5950.00000	102.78574	416.26996	102.78574
6000.00000	103.50764	415.60511	103.50764
6050.00000	104.31834	414.30861	104.31834
6100.00000	105.17635	412.40961	105.17635
6150.00000	106.03322	409.81136	106.03322
6200.00000	106.93712	406.97647	106.93712
6250.00000	107.89808	403.42115	107.89808
6300.00000	108.89555	398.84562	108.89555
6350.00000	109.88297	393.17640	109.88297
6400.00000	110.81794	386.51590	110.81794
6450.00000	111.64870	378.93559	111.64870
6500.00000	112.35887	370.71244	112.35887
6550.00000	112.96954	361.98191	112.96954
6600.00000	113.47144	352.98341	113.47144
6650.00000	113.88566	343.40525	113.88566
6700.00000	114.14021	333.13704	114.14021
6750.00000	114.17276	322.63089	114.17276
6800.00000	113.98009	312.47195	113.98009
6850.00000	113.60450	303.06699	113.60450
6900.00000	113.09870	294.77789	113.09870
6950.00000	112.53774	287.55399	112.53774
7000.00000	111.97858	281.28056	111.97858
7050.00000	111.44582	275.77634	111.44582
7100.00000	110.95849	270.75099	110.95849
7150.00000	110.49999	266.09577	110.49999
7200.00000	110.06934	261.65625	110.06934
7250.00000	109.65891	257.44811	109.65891
7300.00000	109.25677	253.45518	109.25677
7350.00000	108.89510	249.57172	108.89510
7400.00000	108.55514	245.78616	108.55514
7450.00000	108.19352	241.96357	108.19352
7500.00000	107.84155	238.27374	107.84155
7550.00000	107.47832	234.54516	107.47832
7600.00000	107.09328	231.07001	107.09328
7650.00000	106.70281	227.80635	106.70281
7700.00000	106.31871	224.70694	106.31871
7750.00000	105.92145	221.82617	105.92145
7800.00000	105.55034	219.25927	105.55034
7850.00000	105.19723	216.79910	105.19723
7900.00000	104.86157	214.45459	104.86157
7950.00000	104.52508	212.45026	104.52508
8000.00000	104.22089	210.57382	104.22089
8050.00000	103.94275	208.91300	103.94275
8100.00000	103.69196	207.14557	103.69196
8150.00000	103.46913	205.60078	103.46913
8200.00000	103.25480	203.88980	103.25480
8250.00000	103.08012	202.57620	103.08012
8300.00000	102.96144	200.99403	102.96144
8350.00000	102.87618	199.25435	102.87618
8400.00000	102.76737	197.67982	102.76737
8450.00000	102.64053	195.76486	102.64053
8500.00000	102.57710	194.25099	102.57710
8550.00000	102.51102	192.49810	102.51102
8600.00000	102.48909	190.68857	102.48909
8650.00000	102.46089	188.81876	102.46089
8700.00000	102.44329	186.83360	102.44329
8750.00000	102.44514	184.87797	102.44514
8800.00000	102.44624	182.65162	102.44624
8850.00000	102.47109	180.37642	102.47109
8900.00000	102.46783	178.13357	102.46783
8950.00000	102.50440	175.83037	102.50440
9000.00000	102.51133	173.20019	102.51133
9050.00000	102.51544	170.53971	102.51544
9100.00000	102.52041	168.44162	102.52041
9150.00000	102.58563	165.80658	102.58563
9200.00000	102.64124	162.97938	102.64124
9250.00000	102.62493	159.98295	102.62493
9300.00000	102.65443	157.13559	102.65443
9350.00000	102.68720	154.11475	102.68720
9400.00000	102.68737	150.87058	102.68737
9450.00000	102.71463	147.66308	102.71463
9500.00000	102.68956	144.06320	102.68956
9550.00000	102.62297	140.42346	102.62297
9600.00000	102.54532	137.08876	102.54532
9650.00000	102.47900	133.80774	102.47900
9700.00000	102.35835	130.33197	102.35835
9750.00000	102.18265	126.84708	102.18265
9800.00000	101.96455	123.57232	101.96455
9850.00000	101.67722	120.41980	101.67722
9900.00000	101.31589	118.65321	101.31589
9950.00000	100.90693	118.31741	100.90693
10000.00000	100.98256	120.73549	100.98256
10050.00000	101.65910	120.01287	101.65910
10100.00000	102.19176	115.37626	102.19176
10150.00000	102.28739	109.94765	102.28739
10200.00000	102.24289	105.28243	102.24289
10250.00000	102.15253	101.48057	102.15253
10300.00000	102.06849	97.73199	102.06849
10350.00000	101.98456	94.09279	101.98456
10400.00000	101.82469	90.72389	101.82469
10450.00000	101.76264	87.22882	101.76264
10500.00000	101.68667	83.70360	101.68667
10550.00000	101.57857	80.59265	101.57857
10600.00000	101.55863	76.97939	101.55863
10650.00000	101.49929	73.61779	101.49929
10700.00000	101.43947	69.95999	101.43947
10750.00000	101.40225	66.54150	101.40225
10800.00000	101.35648	62.58315	101.35648
10850.00000	101.33634	58.83387	101.33634
10900.00000	101.29479	54.99835	101.29479
10950.00000	101.21135	51.01221	101.21135
11000.00000	101.16585	46.96060	101.16585
11050.00000	101.03107	42.85996	101.03107
11100.00000	101.00266	38.57847	101.00266
11150.00000	100.86152	34.15261	100.86152
11200.00000	100.75200	29.95919	100.75200
11250.00000	100.57937	25.18180	100.57937
11300.00000	100.39235	20.73342	100.39235
11350.00000	100.19649	15.89601	100.19649
11400.00000	99.95863	11.13610	99.95863
11450.00000	99.70187	 6.21661	99.70187
11500.00000	99.43000	 1.29731	99.43000
11550.00000	99.13604	-3.85526	99.13604
11600.00000	98.81092	-8.76430	98.81092
11650.00000	98.47928	-13.73020	98.47928
11700.00000	98.13745	-18.74790	98.13745
11750.00000	97.75267	-23.46547	97.75267
11800.00000	97.41341	-27.96096	97.41341
11850.00000	97.01063	-32.88009	97.01063
11900.00000	96.59371	-37.20972	96.59371
11950.00000	96.21139	-41.68797	96.21139
12000.00000	95.85075	-45.70598	95.85075
12050.00000	95.40191	-49.55662	95.40191
12100.00000	94.95197	-53.91092	94.95197
12150.00000	94.49252	-57.92117	94.49252
12200.00000	94.07893	-62.58140	94.07893
12250.00000	93.59348	-66.79362	93.59348
12300.00000	93.00071	-71.32746	93.00071
12350.00000	92.49657	-75.92981	92.49657
12400.00000	91.93498	-81.10147	91.93498
12450.00000	91.50660	-85.87814	91.50660
12500.00000	91.04849	-90.02480	91.04849
12550.00000	90.54486	-95.06087	90.54486
12600.00000	90.16605	-101.49294	90.16605
12650.00000	89.69016	-106.11738	89.69016
12700.00000	89.16405	-112.30321	89.16405
12750.00000	88.67657	-117.62172	88.67657
12800.00000	88.34769	-123.49671	88.34769
12850.00000	87.74608	-128.50176	87.74608
12900.00000	87.23577	-135.04600	87.23577
12950.00000	86.93388	-141.59544	86.93388
13000.00000	86.47567	-148.99093	86.47567
13050.00000	86.31298	-155.78468	86.31298
13100.00000	85.96467	-163.16879	85.96467
13150.00000	85.85021	-170.75719	85.85021
13200.00000	85.80321	-180.48947	85.80321
13250.00000	86.37887	-190.29439	86.37887
13300.00000	87.14311	-194.40717	87.14311
13350.00000	88.05676	-201.12831	88.05676
13400.00000	89.22182	-201.75281	89.22182
13450.00000	90.05155	-196.93959	90.05155
13500.00000	89.86192	-187.97152	89.86192
13550.00000	88.89653	-185.19062	88.89653
13600.00000	87.36830	-186.01958	87.36830
13650.00000	85.85321	-191.97462	85.85321
13700.00000	84.85920	-199.18106	84.85920
13750.00000	84.32358	-211.12912	84.32358
13800.00000	84.38837	-221.59437	84.38837
13850.00000	84.62106	-234.42447	84.62106
13900.00000	85.04680	-246.75123	85.04680
13950.00000	85.94690	-257.21706	85.94690
14000.00000	87.52413	-264.44645	87.52413
14050.00000	89.56925	-268.05333	89.56925
14100.00000	91.74876	-267.47021	91.74876
14150.00000	93.39752	-257.78101	93.39752
14200.00000	93.51972	-244.58712	93.51972
14250.00000	92.50955	-235.70672	92.50955
14300.00000	91.16800	-233.38397	91.16800
14350.00000	90.13862	-237.57921	90.13862
14400.00000	89.46060	-241.42050	89.46060
14450.00000	89.07009	-248.50543	89.07009
14500.00000	88.86820	-256.31285	88.86820
14550.00000	89.01865	-263.53353	89.01865
14600.00000	89.41374	-270.58943	89.41374
14650.00000	90.01848	-277.24943	90.01848
14700.00000	90.68984	-284.21784	90.68984
14750.00000	91.67642	-289.89961	91.67642
14800.00000	92.71643	-293.38298	92.71643
14850.00000	93.93978	-294.78297	93.93978
14900.00000	94.96485	-295.13843	94.96485
14950.00000	95.71138	-292.96919	95.71138
15000.00000	96.12319	-290.36538	96.12319
15050.00000	96.01986	-288.35610	96.01986
15100.00000	95.88659	-288.04446	95.88659
15150.00000	95.74963	-290.79225	95.74963
15200.00000	95.52464	-293.80506	95.52464
15250.00000	95.42837	-298.55200	95.42837
15300.00000	95.35136	-304.28314	95.35136
15350.00000	95.65198	-309.79847	95.65198
15400.00000	95.90825	-315.56045	95.90825
15450.00000	96.21294	-321.59685	96.21294
15500.00000	96.83100	-325.91981	96.83100
15550.00000	97.37317	-329.56782	97.37317
15600.00000	98.11180	-332.85435	98.11180
15650.00000	98.68384	-335.08554	98.68384
15700.00000	99.05005	-336.83454	99.05005
15750.00000	99.35864	-337.46523	99.35864
15800.00000	99.43996	-339.33775	99.43996
15850.00000	99.51705	-340.63143	99.51705
15900.00000	99.41821	-343.49324	99.41821
15950.00000	99.41457	-346.74160	99.41457
16000.00000	99.37526	-350.71472	99.37526
16050.00000	99.63206	-355.14533	99.63206
16100.00000	99.71476	-359.33177	99.71476
16150.00000	99.99683	-363.85291	99.99683
16200.00000	100.27473	-367.73062	100.27473
16250.00000	100.57113	-371.66130	100.57113
16300.00000	100.87453	-374.86125	100.87453
16350.00000	101.21186	-377.88747	101.21186
16400.00000	101.36846	-380.77732	101.36846
16450.00000	101.62431	-383.13905	101.62431
16500.00000	101.75880	-386.07047	101.75880
16550.00000	101.79119	-388.62447	101.79119
16600.00000	101.80078	-391.93604	101.80078
16650.00000	101.80561	-395.55985	101.80561
16700.00000	101.84691	-398.98038	101.84691
16750.00000	101.92035	-402.84523	101.92035
16800.00000	102.00913	-406.11488	102.00913
16850.00000	102.14168	-410.18199	102.14168
16900.00000	102.27014	-413.58809	102.27014
16950.00000	102.35001	-417.07122	102.35001
17000.00000	102.47371	-420.16511	102.47371
17050.00000	102.57076	-422.95739	102.57076
17100.00000	102.63117	-425.31077	102.63117
17150.00000	102.68179	-428.13787	102.68179
17200.00000	102.59671	-430.76554	102.59671
17250.00000	102.63136	-433.82885	102.63136
17300.00000	102.67986	-436.92854	102.67986
17350.00000	102.67492	-439.95991	102.67492
17400.00000	102.69960	-443.28511	102.69960
17450.00000	102.73297	-446.27643	102.73297
17500.00000	102.74179	-449.16725	102.74179
17550.00000	102.82418	-452.23767	102.82418
17600.00000	102.92472	-454.79883	102.92472
17650.00000	102.98622	-457.29334	102.98622
17700.00000	103.08399	-459.91387	103.08399
17750.00000	103.13581	-462.29003	103.13581
17800.00000	103.15009	-464.93435	103.15009
17850.00000	103.22231	-467.37616	103.22231
17900.00000	103.32800	-469.97794	103.32800
17950.00000	103.33913	-472.48334	103.33913
18000.00000	103.39070	-475.30696	103.39070
18050.00000	103.47160	-478.26810	103.47160
18100.00000	103.53736	-480.98976	103.53736
18150.00000	103.62688	-484.06193	103.62688
18200.00000	103.67825	-486.78335	103.67825
18250.00000	103.73644	-489.76607	103.73644
18300.00000	103.80420	-492.54996	103.80420
18350.00000	103.86035	-495.61457	103.86035
18400.00000	103.93970	-498.56154	103.93970
18450.00000	103.98025	-501.25766	103.98025
18500.00000	104.04537	-504.19178	104.04537
18550.00000	104.06808	-507.22269	104.06808
18600.00000	104.09263	-510.08259	104.09263
18650.00000	104.18370	-513.04323	104.18370
18700.00000	104.20970	-515.96089	104.20970
18750.00000	104.23135	-518.92301	104.23135
18800.00000	104.22386	-521.85217	104.22386
18850.00000	104.24756	-524.62370	104.24756
18900.00000	104.22567	-527.60559	104.22567
18950.00000	104.24709	-530.42370	104.24709
19000.00000	104.23130	-533.44023	104.23130
19050.00000	104.22219	-536.36698	104.22219
19100.00000	104.20516	-539.28088	104.20516
19150.00000	104.22054	-541.79658	104.22054
19200.00000	104.22775	-544.82975	104.22775
19250.00000	104.18618	-547.22537	104.18618
19300.00000	104.19811	-550.06158	104.19811
19350.00000	104.21171	-552.84359	104.21171
19400.00000	104.16684	-555.32019	104.16684
19450.00000	104.16213	-558.14442	104.16213
19500.00000	104.15576	-560.59975	104.15576
19550.00000	104.17653	-563.32824	104.17653
19600.00000	104.13951	-565.88864	104.13951
19650.00000	104.14081	-568.55579	104.14081
19700.00000	104.15320	-571.19296	104.15320
19750.00000	104.14885	-573.52573	104.14885
19800.00000	104.17300	-575.92601	104.17300
19850.00000	104.15959	-578.64793	104.15959
19900.00000	104.18242	-581.28607	104.18242
19950.00000	104.16975	-583.63016	104.16975
20000.00000	104.17610	-586.72288	104.17610
20050.00000	104.18370	-589.30803	104.18370
20100.00000	104.19230	-591.78446	104.19230
20150.00000	104.19590	-594.70711	104.19590
20200.00000	104.21394	-597.12154	104.21394
20250.00000	104.23301	-599.74650	104.23301
20300.00000	104.23621	-602.35930	104.23621
20350.00000	104.24618	-604.91221	104.24618
20400.00000	104.24737	-607.32941	104.24737
20450.00000	104.23784	-610.08108	104.23784
20500.00000	104.27679	-612.93684	104.27679
20550.00000	104.24985	-615.65995	104.24985
20600.00000	104.25911	-618.36631	104.25911
20650.00000	104.28708	-620.94503	104.28708
20700.00000	104.29875	-623.54603	104.29875
20750.00000	104.28710	-626.20142	104.28710
20800.00000	104.28987	-628.85370	104.28987
20850.00000	104.27714	-631.70398	104.27714
20900.00000	104.27472	-634.26627	104.27472
20950.00000	104.27556	-637.13967	104.27556
21000.00000	104.29701	-640.06362	104.29701
21050.00000	104.29377	-642.60993	104.29377
21100.00000	104.29510	-645.52020	104.29510
21150.00000	104.30143	-648.11600	104.30143
21200.00000	104.30045	-650.73711	104.30045
21250.00000	104.24250	-653.41519	104.24250
21300.00000	104.24934	-656.21279	104.24934
21350.00000	104.23031	-659.04387	104.23031
21400.00000	104.22124	-661.98369	104.22124
21450.00000	104.22983	-664.83012	104.22983
21500.00000	104.25084	-667.30203	104.25084
21550.00000	104.27701	-670.07131	104.27701
21600.00000	104.26903	-673.19235	104.26903
21650.00000	104.27375	-675.93181	104.27375
21700.00000	104.22866	-679.19708	104.22866
21750.00000	104.25668	-682.22154	104.25668
21800.00000	104.21218	-685.54821	104.21218
21850.00000	104.19288	-688.43530	104.19288
21900.00000	104.14063	-691.52348	104.14063
21950.00000	104.12992	-694.72742	104.12992
22000.00000	103.99759	-697.64723	103.99759
22050.00000	103.92369	-700.49812	103.92369
22100.00000	103.86231	-703.33159	103.86231
22150.00000	103.81259	-706.21554	103.81259
22200.00000	103.73951	-709.31491	103.73951
22250.00000	103.70421	-712.21001	103.70421
22300.00000	103.64141	-715.15671	103.64141
22350.00000	103.55291	-718.41383	103.55291
22400.00000	103.44012	-721.25221	103.44012
22450.00000	103.37275	-724.25599	103.37275
22500.00000	103.26350	-727.29721	103.26350
22550.00000	103.15505	-730.33274	103.15505
22600.00000	103.08290	-733.07142	103.08290
22650.00000	102.95648	-735.82041	102.95648
22700.00000	102.83510	-738.59875	102.83510
22750.00000	102.73222	-741.97314	102.73222
22800.00000	102.62772	-744.58275	102.62772
22850.00000	102.45323	-747.33125	102.45323
22900.00000	102.36388	-749.78332	102.36388
22950.00000	102.31218	-752.49294	102.31218
23000.00000	102.16080	-755.23029	102.16080
23050.00000	102.06154	-757.74409	102.06154
