---ACOUSTIC CALIBRATION---
Filename: C:\Data\CL0809 DATA\CL0809500\RightPrimary.calib
Date: 8/9/2019 3:24:15 PM
Format: 4
Probe Tube Correction File: C:\Data\Probe Tube Calibrations\74_ProbeTube.calib
Experiment VIs: 2128
EPL_CFTS.exe V15.0.1f5 (2015)
DAQmx V15.1

Attenuation (dB): 40.000000
Min Freq (Hz): 50.000000
Max Freq (Hz): 99950.000000
Freq Step (Hz): 50.000000
Sample Rate (Hz): 200000.000000
[Smoothing]
Method=None
MA.Iterations=0
MA.Length=0
Loess.Length=0
Loess.Type=Linear
Loess.Robust=FALSE


Freq(Hz)	Mag(dB)	Phase(deg)	Unsmoothed(dB)

50.00000	91.03223	293.75146	91.03223
100.00000	66.54304	278.93284	66.54304
150.00000	67.81423	411.24389	67.81423
200.00000	64.34531	556.62339	64.34531
250.00000	54.90143	767.15804	54.90143
300.00000	62.60657	844.64559	62.60657
350.00000	54.35978	995.09816	54.35978
400.00000	47.13846	1108.21382	47.13846
450.00000	52.82483	1114.24741	52.82483
500.00000	53.97847	1179.94996	53.97847
550.00000	66.42051	1168.17421	66.42051
600.00000	63.96164	1138.87975	63.96164
650.00000	72.27214	1118.41270	72.27214
700.00000	72.60221	1128.69725	72.60221
750.00000	75.88722	1099.69074	75.88722
800.00000	77.65956	1083.66064	77.65956
850.00000	76.53405	1078.54453	76.53405
900.00000	76.96786	1088.05484	76.96786
950.00000	80.08886	1085.81393	80.08886
1000.00000	82.25227	1087.22720	82.25227
1050.00000	85.53381	1078.77176	85.53381
1100.00000	88.05305	1064.11264	88.05305
1150.00000	89.48986	1049.59245	89.48986
1200.00000	90.20557	1037.48083	90.20557
1250.00000	90.60107	1028.47112	90.60107
1300.00000	91.82498	1023.82395	91.82498
1350.00000	93.32678	1011.09815	93.32678
1400.00000	93.78555	997.72685	93.78555
1450.00000	93.64513	986.77854	93.64513
1500.00000	93.57102	980.06289	93.57102
1550.00000	93.73830	974.30529	93.73830
1600.00000	94.38668	970.90235	94.38668
1650.00000	95.11774	967.04942	95.11774
1700.00000	98.90584	951.40934	98.90584
1750.00000	95.87213	931.14335	95.87213
1800.00000	95.38308	925.89255	95.38308
1850.00000	94.97169	920.02167	94.97169
1900.00000	94.89135	914.65226	94.89135
1950.00000	94.40081	909.84669	94.40081
2000.00000	94.16072	907.31643	94.16072
2050.00000	94.54915	904.83036	94.54915
2100.00000	94.95754	899.37375	94.95754
2150.00000	95.30586	890.77828	95.30586
2200.00000	94.97886	880.14820	94.97886
2250.00000	94.00301	875.04805	94.00301
2300.00000	93.74910	873.83471	93.74910
2350.00000	93.90132	868.27631	93.90132
2400.00000	93.91716	862.39935	93.91716
2450.00000	93.39024	854.39667	93.39024
2500.00000	92.50812	851.18374	92.50812
2550.00000	92.13098	848.19721	92.13098
2600.00000	91.67129	844.51412	91.67129
2650.00000	91.19866	841.73346	91.19866
2700.00000	90.68091	838.66553	90.68091
2750.00000	90.17331	836.98178	90.17331
2800.00000	89.69029	834.68182	89.69029
2850.00000	89.30619	833.40225	89.30619
2900.00000	89.05192	832.28119	89.05192
2950.00000	88.81029	830.40470	88.81029
3000.00000	88.47799	828.84416	88.47799
3050.00000	88.20355	826.19655	88.20355
3100.00000	87.86602	824.30529	87.86602
3150.00000	87.22509	822.68506	87.22509
3200.00000	86.80217	820.56423	86.80217
3250.00000	86.39854	820.26223	86.39854
3300.00000	85.76727	818.76168	85.76727
3350.00000	85.42849	818.56517	85.42849
3400.00000	84.88994	818.03082	84.88994
3450.00000	84.10161	817.13416	84.10161
3500.00000	83.31678	817.67792	83.31678
3550.00000	82.68575	817.84077	82.68575
3600.00000	81.31441	817.53239	81.31441
3650.00000	80.23714	825.09830	80.23714
3700.00000	78.97228	832.98950	78.97228
3750.00000	77.82902	845.95370	77.82902
3800.00000	78.34336	861.91075	78.34336
3850.00000	79.27068	869.88639	79.27068
3900.00000	80.74570	877.43610	80.74570
3950.00000	81.03025	884.16677	81.03025
4000.00000	81.69499	895.58231	81.69499
4050.00000	83.44027	902.28879	83.44027
4100.00000	85.18321	907.88731	85.18321
4150.00000	87.72683	909.03229	87.72683
4200.00000	89.53659	909.12120	89.53659
4250.00000	90.47344	900.56097	90.47344
4300.00000	91.42530	901.31926	91.42530
4350.00000	92.81442	901.40019	92.81442
4400.00000	94.34585	897.03264	94.34585
4450.00000	95.31334	890.56870	95.31334
4500.00000	96.10874	884.81569	96.10874
4550.00000	96.47253	880.95787	96.47253
4600.00000	96.99460	879.34450	96.99460
4650.00000	97.86751	878.47264	97.86751
4700.00000	98.86390	876.65324	98.86390
4750.00000	99.93928	874.10319	99.93928
4800.00000	101.05572	870.93459	101.05572
4850.00000	102.18821	867.09635	102.18821
4900.00000	103.36436	862.17071	103.36436
4950.00000	104.58779	857.04855	104.58779
5000.00000	105.86442	850.93544	105.86442
5050.00000	107.28073	843.91115	107.28073
5100.00000	108.90812	835.36462	108.90812
5150.00000	110.88025	823.68553	110.88025
5200.00000	113.27964	804.07887	113.27964
5250.00000	114.82792	766.55107	114.82792
5300.00000	111.51749	723.63900	111.51749
5350.00000	105.73451	708.10857	105.73451
5400.00000	101.21183	713.15720	101.21183
5450.00000	98.45481	722.52114	98.45481
5500.00000	95.93675	733.65075	95.93675
5550.00000	94.33902	756.12135	94.33902
5600.00000	95.61616	777.93106	95.61616
5650.00000	97.93116	786.05860	97.93116
5700.00000	99.75079	784.70287	99.75079
5750.00000	100.73872	780.82621	100.73872
5800.00000	101.21351	778.34141	101.21351
5850.00000	101.62233	777.31940	101.62233
5900.00000	102.12802	776.87541	102.12802
5950.00000	102.78519	776.55150	102.78519
6000.00000	103.52616	775.87520	103.52616
6050.00000	104.33623	774.53672	104.33623
6100.00000	105.20473	772.50033	105.20473
6150.00000	106.06059	769.89258	106.06059
6200.00000	106.97196	767.05248	106.97196
6250.00000	107.93113	763.34572	107.93113
6300.00000	108.92671	758.69504	108.92671
6350.00000	109.90105	753.03533	109.90105
6400.00000	110.83425	746.37310	110.83425
6450.00000	111.67128	738.72773	111.67128
6500.00000	112.36641	730.50249	112.36641
6550.00000	112.97607	721.79243	112.97607
6600.00000	113.48878	712.75703	113.48878
6650.00000	113.89624	703.04519	113.89624
6700.00000	114.13794	692.64125	114.13794
6750.00000	114.14621	682.09413	114.14621
6800.00000	113.93206	671.98486	113.93206
6850.00000	113.53438	662.67298	113.53438
6900.00000	113.02356	654.49727	113.02356
6950.00000	112.46336	647.40056	112.46336
7000.00000	111.90915	641.17886	111.90915
7050.00000	111.39366	635.70076	111.39366
7100.00000	110.90483	630.66549	110.90483
7150.00000	110.44009	625.99521	110.44009
7200.00000	110.00096	621.54444	110.00096
7250.00000	109.58169	617.39682	109.58169
7300.00000	109.19375	613.46744	109.19375
7350.00000	108.83156	609.66647	108.83156
7400.00000	108.48835	605.84161	108.48835
7450.00000	108.13716	602.05945	108.13716
7500.00000	107.78935	598.41173	107.78935
7550.00000	107.42668	594.72733	107.42668
7600.00000	107.03290	591.22293	107.03290
7650.00000	106.65270	587.89395	106.65270
7700.00000	106.26524	584.87385	106.26524
7750.00000	105.88529	582.06939	105.88529
7800.00000	105.51531	579.49229	105.51531
7850.00000	105.14674	576.96710	105.14674
7900.00000	104.81102	574.62884	104.81102
7950.00000	104.48845	572.60035	104.48845
8000.00000	104.17952	570.82268	104.17952
8050.00000	103.89134	568.97470	103.89134
8100.00000	103.64892	567.32060	103.64892
8150.00000	103.42474	565.76753	103.42474
8200.00000	103.22027	564.23316	103.22027
8250.00000	103.07090	562.77645	103.07090
8300.00000	102.93736	561.27151	102.93736
8350.00000	102.81479	559.52861	102.81479
8400.00000	102.72851	557.87892	102.72851
8450.00000	102.61930	556.04524	102.61930
8500.00000	102.52907	554.45509	102.52907
8550.00000	102.49851	552.82473	102.49851
8600.00000	102.47222	550.90980	102.47222
8650.00000	102.43963	549.11874	102.43963
8700.00000	102.40531	547.08510	102.40531
8750.00000	102.41722	545.00174	102.41722
8800.00000	102.41327	542.95355	102.41327
8850.00000	102.45396	540.54809	102.45396
8900.00000	102.44030	538.37529	102.44030
8950.00000	102.48569	536.05924	102.48569
9000.00000	102.48498	533.46856	102.48498
9050.00000	102.45808	531.12139	102.45808
9100.00000	102.53008	528.72922	102.53008
9150.00000	102.60473	526.03278	102.60473
9200.00000	102.63822	523.12941	102.63822
9250.00000	102.59028	520.32863	102.59028
9300.00000	102.68361	517.46808	102.68361
9350.00000	102.67223	514.25902	102.67223
9400.00000	102.68235	510.95942	102.68235
9450.00000	102.72012	507.82028	102.72012
9500.00000	102.68316	504.17414	102.68316
9550.00000	102.60987	500.48439	102.60987
9600.00000	102.53466	497.27565	102.53466
9650.00000	102.47379	494.06135	102.47379
9700.00000	102.34379	490.45678	102.34379
9750.00000	102.20312	487.00869	102.20312
9800.00000	101.96716	483.60988	101.96716
9850.00000	101.67477	480.69456	101.67477
9900.00000	101.29845	478.88375	101.29845
9950.00000	100.91723	478.59742	100.91723
10000.00000	101.01554	480.81210	101.01554
10050.00000	101.68861	479.91823	101.68861
10100.00000	102.20437	475.21230	102.20437
10150.00000	102.30049	469.91956	102.30049
10200.00000	102.27128	465.37020	102.27128
10250.00000	102.16819	461.28187	102.16819
10300.00000	102.06533	457.50195	102.06533
10350.00000	101.96118	453.98828	101.96118
10400.00000	101.83573	450.48964	101.83573
10450.00000	101.74012	447.07130	101.74012
10500.00000	101.66975	443.51355	101.66975
10550.00000	101.56377	440.48590	101.56377
10600.00000	101.54462	436.78751	101.54462
10650.00000	101.45902	433.55757	101.45902
10700.00000	101.41703	429.83165	101.41703
10750.00000	101.36254	426.39840	101.36254
10800.00000	101.32543	422.42622	101.32543
10850.00000	101.30195	418.63027	101.30195
10900.00000	101.24221	414.81271	101.24221
10950.00000	101.17089	410.78507	101.17089
11000.00000	101.12964	406.81282	101.12964
11050.00000	101.01139	402.77126	101.01139
11100.00000	100.93876	398.41839	100.93876
11150.00000	100.81244	394.11110	100.81244
11200.00000	100.73278	389.86396	100.73278
11250.00000	100.54114	385.09989	100.54114
11300.00000	100.37627	380.55024	100.37627
11350.00000	100.18138	375.87589	100.18138
11400.00000	99.93032	371.00639	99.93032
11450.00000	99.69081	366.02202	99.69081
11500.00000	99.45171	361.05025	99.45171
11550.00000	99.12748	355.95036	99.12748
11600.00000	98.79793	350.98206	98.79793
11650.00000	98.45937	346.11739	98.45937
11700.00000	98.13018	341.03145	98.13018
11750.00000	97.72561	336.25256	97.72561
11800.00000	97.36413	331.64009	97.36413
11850.00000	97.00707	326.78614	97.00707
11900.00000	96.58343	322.48631	96.58343
11950.00000	96.20632	317.98525	96.20632
12000.00000	95.82725	314.04489	95.82725
12050.00000	95.41512	309.95173	95.41512
12100.00000	94.92448	305.68208	94.92448
12150.00000	94.45892	301.46569	94.45892
12200.00000	94.01804	296.72934	94.01804
12250.00000	93.57450	292.59545	93.57450
12300.00000	92.94861	287.99106	92.94861
12350.00000	92.48447	283.66611	92.48447
12400.00000	91.89951	278.40757	91.89951
12450.00000	91.46447	273.51145	91.46447
12500.00000	91.03410	269.37058	91.03410
12550.00000	90.51566	263.97159	90.51566
12600.00000	90.13413	258.03994	90.13413
12650.00000	89.66110	252.74151	89.66110
12700.00000	89.18871	247.05656	89.18871
12750.00000	88.64341	241.42901	88.64341
12800.00000	88.25687	235.72172	88.25687
12850.00000	87.68075	230.37228	87.68075
12900.00000	87.26408	223.78581	87.26408
12950.00000	86.97993	216.81380	86.97993
13000.00000	86.50867	210.29129	86.50867
13050.00000	86.22482	202.97475	86.22482
13100.00000	85.99466	194.60159	85.99466
13150.00000	85.90513	188.39514	85.90513
13200.00000	85.93419	179.17434	85.93419
13250.00000	86.44350	169.10614	86.44350
13300.00000	87.13126	164.61111	87.13126
13350.00000	88.20691	157.99615	88.20691
13400.00000	89.50618	156.79978	89.50618
13450.00000	90.28098	162.15721	90.28098
13500.00000	89.92587	171.09739	89.92587
13550.00000	88.84848	173.43620	88.84848
13600.00000	87.24343	173.10613	87.24343
13650.00000	86.05574	167.49886	86.05574
13700.00000	84.98923	159.54157	84.98923
13750.00000	84.42841	148.08517	84.42841
13800.00000	84.36065	136.85769	84.36065
13850.00000	84.61534	124.90904	84.61534
13900.00000	84.87982	111.85599	84.87982
13950.00000	86.05655	103.16441	86.05655
14000.00000	87.61662	95.81027	87.61662
14050.00000	89.53509	91.34522	89.53509
14100.00000	91.97331	91.53284	91.97331
14150.00000	93.41527	102.39216	93.41527
14200.00000	93.58505	114.89170	93.58505
14250.00000	92.53027	123.92032	92.53027
14300.00000	91.22665	126.37105	91.22665
14350.00000	90.23062	122.68401	90.23062
14400.00000	89.61869	117.14682	89.61869
14450.00000	89.13875	111.42915	89.13875
14500.00000	88.83577	104.15820	88.83577
14550.00000	89.08939	96.09987	89.08939
14600.00000	89.41897	89.52560	89.41897
14650.00000	89.99832	82.60801	89.99832
14700.00000	90.77525	75.65165	90.77525
14750.00000	91.70673	70.83017	91.70673
14800.00000	92.72082	66.87078	92.72082
14850.00000	93.94660	64.80290	93.94660
14900.00000	95.14279	64.38059	95.14279
14950.00000	95.81192	66.89075	95.81192
15000.00000	96.13495	69.50025	96.13495
15050.00000	96.08963	71.99034	96.08963
15100.00000	95.97238	71.85290	95.97238
15150.00000	95.68779	69.14639	95.68779
15200.00000	95.68382	65.92221	95.68382
15250.00000	95.45603	61.12008	95.45603
15300.00000	95.42544	54.82868	95.42544
15350.00000	95.68508	49.37866	95.68508
15400.00000	95.84992	44.15413	95.84992
15450.00000	96.30897	38.56219	96.30897
15500.00000	96.82766	33.72978	96.82766
15550.00000	97.47102	29.99153	97.47102
15600.00000	98.08324	26.98003	98.08324
15650.00000	98.74714	24.43466	98.74714
15700.00000	98.98340	23.05393	98.98340
15750.00000	99.35188	22.01827	99.35188
15800.00000	99.38376	20.40376	99.38376
15850.00000	99.43236	18.88722	99.43236
15900.00000	99.42413	16.17819	99.42413
15950.00000	99.41521	13.07159	99.41521
16000.00000	99.42204	 9.36608	99.42204
16050.00000	99.56129	 4.87737	99.56129
16100.00000	99.68304	 0.36439	99.68304
16150.00000	99.95225	-4.28117	99.95225
16200.00000	100.18237	-7.68252	100.18237
16250.00000	100.50770	-11.79868	100.50770
16300.00000	100.84422	-15.29047	100.84422
16350.00000	101.15382	-18.32593	101.15382
16400.00000	101.34991	-20.92500	101.34991
16450.00000	101.54866	-23.43530	101.54866
16500.00000	101.65198	-26.21833	101.65198
16550.00000	101.72596	-28.73188	101.72596
16600.00000	101.75896	-32.07575	101.75896
16650.00000	101.71501	-35.39299	101.71501
16700.00000	101.82879	-38.98116	101.82879
16750.00000	101.89198	-42.73714	101.89198
16800.00000	101.97908	-46.15535	101.97908
16850.00000	102.07890	-50.27790	102.07890
16900.00000	102.22980	-53.76212	102.22980
16950.00000	102.31044	-56.90217	102.31044
17000.00000	102.46013	-60.08099	102.46013
17050.00000	102.51313	-62.61795	102.51313
17100.00000	102.62144	-65.34552	102.62144
17150.00000	102.63426	-68.15959	102.63426
17200.00000	102.56430	-70.83649	102.56430
17250.00000	102.63569	-73.82577	102.63569
17300.00000	102.62865	-76.93738	102.62865
17350.00000	102.67039	-80.19086	102.67039
17400.00000	102.67101	-83.26903	102.67101
17450.00000	102.68558	-86.17395	102.68558
17500.00000	102.73686	-89.30008	102.73686
17550.00000	102.81153	-92.33920	102.81153
17600.00000	102.88235	-95.03391	102.88235
17650.00000	102.93012	-97.61339	102.93012
17700.00000	102.97723	-99.91551	102.97723
17750.00000	103.04598	-102.46517	103.04598
17800.00000	103.07889	-104.69926	103.07889
17850.00000	103.08223	-107.27229	103.08223
17900.00000	103.18415	-109.76414	103.18415
17950.00000	103.21796	-112.53961	103.21796
18000.00000	103.29636	-115.12540	103.29636
18050.00000	103.34205	-117.96217	103.34205
18100.00000	103.43100	-120.67970	103.43100
18150.00000	103.50208	-123.59542	103.50208
18200.00000	103.57582	-126.38630	103.57582
18250.00000	103.65721	-129.18478	103.65721
18300.00000	103.72451	-131.94491	103.72451
18350.00000	103.80884	-134.97996	103.80884
18400.00000	103.85464	-137.92073	103.85464
18450.00000	103.91974	-140.62695	103.91974
18500.00000	103.97316	-143.44662	103.97316
18550.00000	104.02981	-146.66835	104.02981
18600.00000	104.02878	-149.49772	104.02878
18650.00000	104.11585	-152.47622	104.11585
18700.00000	104.16629	-155.12922	104.16629
18750.00000	104.18654	-158.23653	104.18654
18800.00000	104.20923	-161.11269	104.20923
18850.00000	104.22979	-163.93539	104.22979
18900.00000	104.19206	-166.76802	104.19206
18950.00000	104.20860	-169.70841	104.20860
19000.00000	104.21394	-172.70470	104.21394
19050.00000	104.21752	-175.58888	104.21752
19100.00000	104.23738	-178.55442	104.23738
19150.00000	104.24421	-181.16809	104.24421
19200.00000	104.23982	-184.09852	104.23982
19250.00000	104.21458	-186.62660	104.21458
19300.00000	104.25179	-189.28557	104.25179
19350.00000	104.23595	-192.26353	104.23595
19400.00000	104.21522	-194.70694	104.21522
19450.00000	104.20048	-197.61377	104.20048
19500.00000	104.20093	-200.18108	104.20093
19550.00000	104.19959	-202.83881	104.19959
19600.00000	104.18947	-205.52740	104.18947
19650.00000	104.17677	-208.08803	104.17677
19700.00000	104.19615	-210.68400	104.19615
19750.00000	104.18125	-213.28101	104.18125
19800.00000	104.18663	-215.69027	104.18663
19850.00000	104.20647	-218.53248	104.20647
19900.00000	104.21386	-221.07878	104.21386
19950.00000	104.21450	-223.55461	104.21450
20000.00000	104.18920	-226.52166	104.18920
20050.00000	104.21031	-229.03983	104.21031
20100.00000	104.21839	-231.76424	104.21839
20150.00000	104.23717	-234.43796	104.23717
20200.00000	104.23397	-237.15930	104.23397
20250.00000	104.23789	-239.62622	104.23789
20300.00000	104.25217	-242.21405	104.25217
20350.00000	104.24769	-244.75126	104.24769
20400.00000	104.25095	-247.45379	104.25095
20450.00000	104.26463	-250.05541	104.26463
20500.00000	104.25904	-252.74372	104.25904
20550.00000	104.24162	-255.64284	104.24162
20600.00000	104.26498	-258.16184	104.26498
20650.00000	104.27839	-260.91449	104.27839
20700.00000	104.28096	-263.53685	104.28096
20750.00000	104.25497	-266.15058	104.25497
20800.00000	104.26222	-268.82171	104.26222
20850.00000	104.24124	-271.65975	104.24124
20900.00000	104.22007	-274.23513	104.22007
20950.00000	104.21147	-277.06290	104.21147
21000.00000	104.23914	-279.89622	104.23914
21050.00000	104.24627	-282.51814	104.24627
21100.00000	104.24952	-285.36090	104.24952
21150.00000	104.24761	-287.88373	104.24761
21200.00000	104.23700	-290.47300	104.23700
21250.00000	104.19983	-293.08958	104.19983
21300.00000	104.18882	-296.02931	104.18882
21350.00000	104.16589	-298.76160	104.16589
21400.00000	104.16193	-301.71828	104.16193
21450.00000	104.19799	-304.35713	104.19799
21500.00000	104.23587	-306.78563	104.23587
21550.00000	104.23300	-309.69728	104.23300
21600.00000	104.23804	-312.70172	104.23804
21650.00000	104.23777	-315.37214	104.23777
21700.00000	104.20229	-318.58417	104.20229
21750.00000	104.18336	-321.57824	104.18336
21800.00000	104.17411	-324.85160	104.17411
21850.00000	104.18181	-327.81991	104.18181
21900.00000	104.13597	-330.84215	104.13597
21950.00000	104.07139	-333.91745	104.07139
22000.00000	103.97711	-337.05076	103.97711
22050.00000	103.90260	-339.77287	103.90260
22100.00000	103.84708	-342.56698	103.84708
22150.00000	103.81691	-345.54280	103.81691
22200.00000	103.74256	-348.57514	103.74256
22250.00000	103.70600	-351.51757	103.70600
22300.00000	103.60914	-354.45155	103.60914
22350.00000	103.52037	-357.58788	103.52037
22400.00000	103.47971	-360.72768	103.47971
22450.00000	103.39930	-363.38174	103.39930
22500.00000	103.29008	-366.74630	103.29008
22550.00000	103.20424	-369.70896	103.20424
22600.00000	103.07144	-372.42412	103.07144
22650.00000	102.97177	-375.32513	102.97177
22700.00000	102.86908	-378.18874	102.86908
22750.00000	102.73595	-381.33660	102.73595
22800.00000	102.59451	-383.97328	102.59451
22850.00000	102.50342	-386.66496	102.50342
22900.00000	102.41063	-389.11139	102.41063
22950.00000	102.33645	-391.97117	102.33645
23000.00000	102.19526	-394.55248	102.19526
23050.00000	102.08106	-397.32146	102.08106
23100.00000	101.94716	-400.50560	101.94716
23150.00000	101.82226	-403.21299	101.82226
