---ACOUSTIC CALIBRATION---
Filename: C:\Data\CL0809 DATA\CL0809500\RightPrimary.calib
Date: 8/9/2019 3:24:22 PM
Format: 4
Probe Tube Correction File: C:\Data\Probe Tube Calibrations\74_ProbeTube.calib
Experiment VIs: 2128
EPL_CFTS.exe V15.0.1f5 (2015)
DAQmx V15.1

Attenuation (dB): 40.000000
Min Freq (Hz): 50.000000
Max Freq (Hz): 99950.000000
Freq Step (Hz): 50.000000
Sample Rate (Hz): 200000.000000
[Smoothing]
Method=None
MA.Iterations=0
MA.Length=0
Loess.Length=0
Loess.Type=Linear
Loess.Robust=FALSE


Freq(Hz)	Mag(dB)	Phase(deg)	Unsmoothed(dB)

50.00000	99.39381	121.10620	99.39381
100.00000	61.58925	70.12352	61.58925
150.00000	56.85867	264.92282	56.85867
200.00000	58.60961	471.41613	58.60961
250.00000	55.92538	688.32385	55.92538
300.00000	61.26718	815.49179	61.26718
350.00000	62.49149	988.68441	62.49149
400.00000	59.26078	1052.89370	59.26078
450.00000	61.12996	1106.53932	61.12996
500.00000	63.46755	1245.10816	63.46755
550.00000	68.90925	1167.60199	68.90925
600.00000	68.83434	1135.58930	68.83434
650.00000	74.36861	1136.64547	74.36861
700.00000	73.91424	1128.36717	73.91424
750.00000	77.50688	1098.33067	77.50688
800.00000	78.12777	1087.33758	78.12777
850.00000	76.78879	1079.88453	76.78879
900.00000	77.38683	1088.83036	77.38683
950.00000	80.69783	1087.34798	80.69783
1000.00000	82.56237	1089.79975	82.56237
1050.00000	85.63749	1080.06169	85.63749
1100.00000	88.08439	1065.30804	88.08439
1150.00000	89.39127	1051.02528	89.39127
1200.00000	90.13280	1038.61835	90.13280
1250.00000	90.55297	1028.96528	90.55297
1300.00000	91.75092	1023.78855	91.75092
1350.00000	93.27328	1011.38102	93.27328
1400.00000	93.71707	997.95328	93.71707
1450.00000	93.60911	986.70394	93.60911
1500.00000	93.51392	980.05569	93.51392
1550.00000	93.63923	974.13180	93.63923
1600.00000	94.36955	970.53524	94.36955
1650.00000	95.11346	966.96252	95.11346
1700.00000	98.93673	951.17720	98.93673
1750.00000	95.92189	931.04694	95.92189
1800.00000	95.43270	925.89782	95.43270
1850.00000	95.03597	919.59489	95.03597
1900.00000	94.95202	914.25385	94.95202
1950.00000	94.48168	909.81635	94.48168
2000.00000	94.23363	907.21098	94.23363
2050.00000	94.58519	904.97533	94.58519
2100.00000	95.00349	899.29001	95.00349
2150.00000	95.35739	890.95425	95.35739
2200.00000	95.03403	880.43952	95.03403
2250.00000	94.03786	874.99253	94.03786
2300.00000	93.76225	874.07994	93.76225
2350.00000	93.89472	868.77121	93.89472
2400.00000	93.89582	862.49638	93.89582
2450.00000	93.39692	854.63162	93.39692
2500.00000	92.47696	851.57606	92.47696
2550.00000	92.14319	848.07085	92.14319
2600.00000	91.72312	844.20140	91.72312
2650.00000	91.15270	842.04639	91.15270
2700.00000	90.71162	838.98154	90.71162
2750.00000	90.15288	836.83222	90.15288
2800.00000	89.68622	834.49105	89.68622
2850.00000	89.28490	832.86162	89.28490
2900.00000	89.04559	832.11160	89.04559
2950.00000	88.81879	830.80613	88.81879
3000.00000	88.54828	828.46745	88.54828
3050.00000	88.27678	826.46252	88.27678
3100.00000	87.92996	824.26945	87.92996
3150.00000	87.27608	821.97842	87.27608
3200.00000	86.78555	820.53355	86.78555
3250.00000	86.40601	819.80491	86.40601
3300.00000	85.81584	819.24432	85.81584
3350.00000	85.42644	818.30783	85.42644
3400.00000	84.86220	818.20312	84.86220
3450.00000	84.22660	817.25278	84.22660
3500.00000	83.40791	817.82546	83.40791
3550.00000	82.93267	817.11496	82.93267
3600.00000	81.54668	818.65219	81.54668
3650.00000	80.21574	825.34947	80.21574
3700.00000	78.79280	832.49163	78.79280
3750.00000	78.10466	845.92081	78.10466
3800.00000	78.24718	862.09102	78.24718
3850.00000	79.36658	869.81390	79.36658
3900.00000	80.64898	877.53041	80.64898
3950.00000	80.98580	884.29973	80.98580
4000.00000	81.54048	894.02665	81.54048
4050.00000	83.32967	902.72869	83.32967
4100.00000	85.10143	908.00941	85.10143
4150.00000	87.71947	909.43317	87.71947
4200.00000	89.50604	908.92577	89.50604
4250.00000	90.46445	900.37861	90.46445
4300.00000	91.36093	901.39733	91.36093
4350.00000	92.81572	901.29247	92.81572
4400.00000	94.33535	896.86802	94.33535
4450.00000	95.31760	890.36483	95.31760
4500.00000	96.12071	884.79563	96.12071
4550.00000	96.48558	880.90323	96.48558
4600.00000	96.99085	878.93537	96.99085
4650.00000	97.86072	878.38483	97.86072
4700.00000	98.86199	876.63211	98.86199
4750.00000	99.93602	874.06903	99.93602
4800.00000	101.03792	870.91934	101.03792
4850.00000	102.17496	867.07032	102.17496
4900.00000	103.35792	862.13438	103.35792
4950.00000	104.57251	857.05407	104.57251
5000.00000	105.85416	850.89610	105.85416
5050.00000	107.26713	843.94301	107.26713
5100.00000	108.89027	835.41691	108.89027
5150.00000	110.85565	823.77115	110.85565
5200.00000	113.25425	804.32074	113.25425
5250.00000	114.82747	766.97333	114.82747
5300.00000	111.56595	723.92484	111.56595
5350.00000	105.77969	708.10191	105.77969
5400.00000	101.23391	713.23682	101.23391
5450.00000	98.48814	722.54148	98.48814
5500.00000	95.98429	733.58139	95.98429
5550.00000	94.37259	755.68991	94.37259
5600.00000	95.61063	777.68443	95.61063
5650.00000	97.91272	786.00037	97.91272
5700.00000	99.72617	784.84245	99.72617
5750.00000	100.74440	780.90796	100.74440
5800.00000	101.24055	778.24591	101.24055
5850.00000	101.64095	777.10254	101.64095
5900.00000	102.14983	776.70716	102.14983
5950.00000	102.79097	776.45978	102.79097
6000.00000	103.52318	775.79071	103.52318
6050.00000	104.33435	774.39693	104.33435
6100.00000	105.19229	772.48817	105.19229
6150.00000	106.05439	769.89671	106.05439
6200.00000	106.95605	767.02130	106.95605
6250.00000	107.91789	763.42095	107.91789
6300.00000	108.91567	758.79410	108.91567
6350.00000	109.90171	753.09605	109.90171
6400.00000	110.82739	746.44314	110.82739
6450.00000	111.66709	738.81278	111.66709
6500.00000	112.36409	730.54428	112.36409
6550.00000	112.97615	721.82592	112.97615
6600.00000	113.47959	712.82062	113.47959
6650.00000	113.88906	703.17516	113.88906
6700.00000	114.13761	692.86515	114.13761
6750.00000	114.15387	682.32879	114.15387
6800.00000	113.95094	672.21487	113.95094
6850.00000	113.56223	662.85883	113.56223
6900.00000	113.05882	654.60897	113.05882
6950.00000	112.49874	647.47413	112.49874
7000.00000	111.93924	641.22819	111.93924
7050.00000	111.41027	635.76156	111.41027
7100.00000	110.93138	630.73204	110.93138
7150.00000	110.47155	626.03070	110.47155
7200.00000	110.03757	621.61413	110.03757
7250.00000	109.62173	617.44677	109.62173
7300.00000	109.23206	613.49588	109.23206
7350.00000	108.86072	609.62012	108.86072
7400.00000	108.51781	605.80812	108.51781
7450.00000	108.15669	602.02812	108.15669
7500.00000	107.80829	598.30717	107.80829
7550.00000	107.44531	594.65914	107.44531
7600.00000	107.07016	591.12638	107.07016
7650.00000	106.67536	587.81766	106.67536
7700.00000	106.28996	584.78799	106.28996
7750.00000	105.89838	581.88732	105.89838
7800.00000	105.53784	579.33691	105.53784
7850.00000	105.18224	576.90325	105.18224
7900.00000	104.82642	574.55414	104.82642
7950.00000	104.49642	572.47315	104.49642
8000.00000	104.18405	570.70155	104.18405
8050.00000	103.91521	568.91851	103.91521
8100.00000	103.65864	567.21137	103.65864
8150.00000	103.44158	565.68179	103.44158
8200.00000	103.23118	564.13508	103.23118
8250.00000	103.06492	562.64239	103.06492
8300.00000	102.95208	561.14100	102.95208
8350.00000	102.84193	559.46356	102.84193
8400.00000	102.75945	557.72272	102.75945
8450.00000	102.63322	555.97495	102.63322
8500.00000	102.56152	554.33215	102.56152
8550.00000	102.50263	552.64471	102.50263
8600.00000	102.48593	550.72557	102.48593
8650.00000	102.46720	548.86802	102.46720
8700.00000	102.42442	546.83945	102.42442
8750.00000	102.42587	544.89594	102.42587
8800.00000	102.42534	542.80414	102.42534
8850.00000	102.46573	540.39240	102.46573
8900.00000	102.45940	538.29021	102.45940
8950.00000	102.50223	535.94975	102.50223
9000.00000	102.49994	533.35243	102.49994
9050.00000	102.48972	530.83575	102.48972
9100.00000	102.53276	528.71068	102.53276
9150.00000	102.60706	525.86931	102.60706
9200.00000	102.65385	523.03209	102.65385
9250.00000	102.60626	520.03338	102.60626
9300.00000	102.65848	517.28580	102.65848
9350.00000	102.68802	514.18840	102.68802
9400.00000	102.68581	511.00072	102.68581
9450.00000	102.70641	507.63100	102.70641
9500.00000	102.69714	504.08483	102.69714
9550.00000	102.61956	500.57267	102.61956
9600.00000	102.53604	497.18201	102.53604
9650.00000	102.46277	493.87648	102.46277
9700.00000	102.35615	490.34839	102.35615
9750.00000	102.19415	486.94494	102.19415
9800.00000	101.97910	483.63525	101.97910
9850.00000	101.67764	480.50090	101.67764
9900.00000	101.31027	478.69476	101.31027
9950.00000	100.90118	478.54209	100.90118
10000.00000	100.99532	480.75243	100.99532
10050.00000	101.67021	480.01837	101.67021
10100.00000	102.18606	475.22410	102.18606
10150.00000	102.30664	469.91010	102.30664
10200.00000	102.26400	465.29042	102.26400
10250.00000	102.16846	461.24534	102.16846
10300.00000	102.06971	457.67200	102.06971
10350.00000	101.96723	454.05101	101.96723
10400.00000	101.82913	450.61930	101.82913
10450.00000	101.75748	447.12521	101.75748
10500.00000	101.68248	443.47499	101.68248
10550.00000	101.57598	440.54488	101.57598
10600.00000	101.54891	436.84322	101.54891
10650.00000	101.47548	433.52205	101.47548
10700.00000	101.44309	429.92200	101.44309
10750.00000	101.36737	426.51404	101.36737
10800.00000	101.34267	422.51537	101.34267
10850.00000	101.31492	418.69536	101.31492
10900.00000	101.25930	414.80264	101.25930
10950.00000	101.19855	410.85116	101.19855
11000.00000	101.14565	406.76252	101.14565
11050.00000	101.03094	402.76314	101.03094
11100.00000	100.96114	398.50111	100.96114
11150.00000	100.83283	394.15830	100.83283
11200.00000	100.73682	389.95365	100.73682
11250.00000	100.55195	385.18430	100.55195
11300.00000	100.38343	380.65372	100.38343
11350.00000	100.18020	375.82954	100.18020
11400.00000	99.95419	370.92469	99.95419
11450.00000	99.71098	366.11303	99.71098
11500.00000	99.44964	361.06761	99.44964
11550.00000	99.14686	356.02793	99.14686
11600.00000	98.78619	351.07875	98.78619
11650.00000	98.46619	346.14902	98.46619
11700.00000	98.14335	341.16390	98.14335
11750.00000	97.73778	336.33279	97.73778
11800.00000	97.38441	331.67851	97.38441
11850.00000	97.02143	326.98116	97.02143
11900.00000	96.57667	322.62852	96.57667
11950.00000	96.19502	318.17567	96.19502
12000.00000	95.86339	314.13113	95.86339
12050.00000	95.40254	310.14396	95.40254
12100.00000	94.94670	305.87939	94.94670
12150.00000	94.49855	301.92668	94.49855
12200.00000	94.06370	297.04369	94.06370
12250.00000	93.61540	292.92867	93.61540
12300.00000	93.00183	288.25180	93.00183
12350.00000	92.48586	283.89754	92.48586
12400.00000	91.90105	278.64004	91.90105
12450.00000	91.49065	273.79122	91.49065
12500.00000	91.02146	269.66118	91.02146
12550.00000	90.52182	264.74829	90.52182
12600.00000	90.15470	258.38726	90.15470
12650.00000	89.76387	252.96220	89.76387
12700.00000	89.16135	247.26898	89.16135
12750.00000	88.69294	242.48774	88.69294
12800.00000	88.23680	235.77699	88.23680
12850.00000	87.69486	231.46685	87.69486
12900.00000	87.24633	223.92893	87.24633
12950.00000	86.97384	217.90322	86.97384
13000.00000	86.58155	210.49351	86.58155
13050.00000	86.23839	203.55557	86.23839
13100.00000	86.02047	195.30218	86.02047
13150.00000	85.97595	188.30560	85.97595
13200.00000	85.97526	179.21059	85.97526
13250.00000	86.45096	169.71963	86.45096
13300.00000	87.15453	165.00012	87.15453
13350.00000	88.23190	158.73807	88.23190
13400.00000	89.30978	157.38428	89.30978
13450.00000	90.13413	161.75975	90.13413
13500.00000	89.96982	170.84124	89.96982
13550.00000	88.81151	173.88037	88.81151
13600.00000	87.24905	173.11332	87.24905
13650.00000	86.00954	167.61242	86.00954
13700.00000	84.87191	160.29985	84.87191
13750.00000	84.38130	148.70952	84.38130
13800.00000	84.48914	137.80786	84.48914
13850.00000	84.53150	124.65544	84.53150
13900.00000	85.02422	112.31629	85.02422
13950.00000	86.07253	102.73387	86.07253
14000.00000	87.63918	95.25676	87.63918
14050.00000	89.54075	91.84453	89.54075
14100.00000	91.77048	92.62151	91.77048
14150.00000	93.49153	101.79012	93.49153
14200.00000	93.58243	115.18760	93.58243
14250.00000	92.50682	123.59487	92.50682
14300.00000	91.18481	126.38721	91.18481
14350.00000	90.06177	122.40776	90.06177
14400.00000	89.60045	117.66436	89.60045
14450.00000	89.09293	111.36941	89.09293
14500.00000	88.83163	103.80332	88.83163
14550.00000	89.08366	96.11991	89.08366
14600.00000	89.35990	88.84899	89.35990
14650.00000	89.99203	82.77518	89.99203
14700.00000	90.77755	75.56894	90.77755
14750.00000	91.64598	70.30176	91.64598
14800.00000	92.65619	66.82356	92.65619
14850.00000	93.85609	64.55989	93.85609
14900.00000	95.07908	64.73801	95.07908
14950.00000	95.80726	66.18577	95.80726
15000.00000	96.09316	69.04365	96.09316
15050.00000	96.11180	72.07674	96.11180
15100.00000	95.90213	70.96420	95.90213
15150.00000	95.63666	69.34123	95.63666
15200.00000	95.56467	66.01691	95.56467
15250.00000	95.42929	61.73003	95.42929
15300.00000	95.36888	55.40941	95.36888
15350.00000	95.63048	49.75751	95.63048
15400.00000	95.90070	43.72790	95.90070
15450.00000	96.23244	38.38497	96.23244
15500.00000	96.81866	34.19874	96.81866
15550.00000	97.43730	30.50665	97.43730
15600.00000	98.15282	26.65445	98.15282
15650.00000	98.69578	24.26735	98.69578
15700.00000	98.99807	23.10518	98.99807
15750.00000	99.37264	21.99978	99.37264
15800.00000	99.38249	20.57656	99.38249
15850.00000	99.49188	19.21077	99.49188
15900.00000	99.41681	16.76677	99.41681
15950.00000	99.39665	13.25690	99.39665
16000.00000	99.42496	 9.16264	99.42496
16050.00000	99.57305	 5.16953	99.57305
16100.00000	99.67894	 0.77329	99.67894
16150.00000	99.95625	-3.97301	99.95625
16200.00000	100.25302	-7.48488	100.25302
16250.00000	100.51064	-11.83313	100.51064
16300.00000	100.82782	-15.15263	100.82782
16350.00000	101.20489	-18.29013	101.20489
16400.00000	101.39152	-20.91104	101.39152
16450.00000	101.59342	-23.17870	101.59342
16500.00000	101.66998	-26.07994	101.66998
16550.00000	101.72124	-28.85877	101.72124
16600.00000	101.78455	-31.87439	101.78455
16650.00000	101.77000	-35.36974	101.77000
16700.00000	101.79680	-38.83553	101.79680
16750.00000	101.92196	-42.94585	101.92196
16800.00000	101.95664	-46.25150	101.95664
16850.00000	102.14748	-50.32725	102.14748
16900.00000	102.22473	-53.56831	102.22473
16950.00000	102.33354	-57.22036	102.33354
17000.00000	102.45825	-60.08500	102.45825
17050.00000	102.50526	-62.78843	102.50526
17100.00000	102.60559	-65.38838	102.60559
17150.00000	102.63596	-67.99927	102.63596
17200.00000	102.60954	-70.63543	102.60954
17250.00000	102.63340	-73.58683	102.63340
17300.00000	102.64760	-76.87475	102.64760
17350.00000	102.69225	-80.08370	102.69225
17400.00000	102.68528	-83.24720	102.68528
17450.00000	102.70501	-86.07250	102.70501
17500.00000	102.75467	-89.31576	102.75467
17550.00000	102.80852	-92.17771	102.80852
17600.00000	102.88146	-95.03593	102.88146
17650.00000	102.94094	-97.36190	102.94094
17700.00000	103.00669	-99.81339	103.00669
17750.00000	103.05807	-102.27496	103.05807
17800.00000	103.14264	-104.84827	103.14264
17850.00000	103.18503	-107.16069	103.18503
17900.00000	103.23285	-109.80200	103.23285
17950.00000	103.28201	-112.67057	103.28201
18000.00000	103.36351	-115.20559	103.36351
18050.00000	103.42052	-118.05659	103.42052
18100.00000	103.49975	-120.87691	103.49975
18150.00000	103.57083	-123.73092	103.57083
18200.00000	103.63009	-126.60633	103.63009
18250.00000	103.69024	-129.49216	103.69024
18300.00000	103.76334	-132.33913	103.76334
18350.00000	103.82480	-135.27457	103.82480
18400.00000	103.89200	-138.17309	103.89200
18450.00000	103.96865	-141.04805	103.96865
18500.00000	103.99742	-143.81514	103.99742
18550.00000	104.06290	-146.88033	104.06290
18600.00000	104.07599	-149.65436	104.07599
18650.00000	104.15238	-152.76443	104.15238
18700.00000	104.18885	-155.49889	104.18885
18750.00000	104.21694	-158.55103	104.21694
18800.00000	104.22607	-161.51773	104.22607
18850.00000	104.24013	-164.27641	104.24013
18900.00000	104.22769	-167.08580	104.22769
18950.00000	104.21583	-170.14124	104.21583
19000.00000	104.21634	-173.14652	104.21634
19050.00000	104.22762	-176.03832	104.22762
19100.00000	104.22015	-178.82295	104.22015
19150.00000	104.22857	-181.54891	104.22857
19200.00000	104.24921	-184.47325	104.24921
19250.00000	104.21301	-186.98393	104.21301
19300.00000	104.23003	-189.71340	104.23003
19350.00000	104.22919	-192.71464	104.22919
19400.00000	104.17856	-195.13693	104.17856
19450.00000	104.18289	-197.92894	104.18289
19500.00000	104.19083	-200.42208	104.19083
19550.00000	104.18535	-203.13970	104.18535
19600.00000	104.16163	-205.75308	104.16163
19650.00000	104.14245	-208.25144	104.14245
19700.00000	104.17008	-211.03747	104.17008
19750.00000	104.16136	-213.50742	104.16136
19800.00000	104.19923	-215.84357	104.19923
19850.00000	104.17378	-218.64944	104.17378
19900.00000	104.18877	-221.13495	104.18877
19950.00000	104.18599	-223.64390	104.18599
20000.00000	104.16954	-226.69766	104.16954
20050.00000	104.19364	-229.14705	104.19364
20100.00000	104.20628	-231.87085	104.20628
20150.00000	104.22868	-234.59887	104.22868
20200.00000	104.22795	-237.22537	104.22795
20250.00000	104.24572	-239.55976	104.24572
20300.00000	104.23241	-242.33162	104.23241
20350.00000	104.23617	-244.77543	104.23617
20400.00000	104.23121	-247.50047	104.23121
20450.00000	104.24632	-250.14376	104.24632
20500.00000	104.25764	-252.96706	104.25764
20550.00000	104.24103	-255.63023	104.24103
20600.00000	104.24976	-258.21576	104.24976
20650.00000	104.26859	-261.05715	104.26859
20700.00000	104.28554	-263.47740	104.28554
20750.00000	104.25583	-266.14213	104.25583
20800.00000	104.25522	-268.78698	104.25522
20850.00000	104.26763	-271.72037	104.26763
20900.00000	104.23020	-274.13416	104.23020
20950.00000	104.25616	-277.06934	104.25616
21000.00000	104.28593	-280.01697	104.28593
21050.00000	104.26826	-282.59759	104.26826
21100.00000	104.27156	-285.42975	104.27156
21150.00000	104.26379	-287.99000	104.26379
21200.00000	104.26841	-290.49422	104.26841
21250.00000	104.20289	-293.14003	104.20289
21300.00000	104.22799	-296.14638	104.22799
21350.00000	104.20233	-298.90091	104.20233
21400.00000	104.15920	-301.76032	104.15920
21450.00000	104.24106	-304.55065	104.24106
21500.00000	104.23078	-307.06801	104.23078
21550.00000	104.25523	-309.89198	104.25523
21600.00000	104.26083	-312.98272	104.26083
21650.00000	104.26466	-315.56333	104.26466
21700.00000	104.19606	-318.89323	104.19606
21750.00000	104.21933	-321.93586	104.21933
21800.00000	104.17044	-325.16651	104.17044
21850.00000	104.18153	-328.12940	104.18153
21900.00000	104.13124	-331.32946	104.13124
21950.00000	104.10129	-334.30164	104.10129
22000.00000	103.98905	-337.42635	103.98905
22050.00000	103.89262	-340.14020	103.89262
22100.00000	103.86474	-342.89403	103.86474
22150.00000	103.82521	-345.76426	103.82521
22200.00000	103.75235	-348.80210	103.75235
22250.00000	103.72706	-351.85982	103.72706
22300.00000	103.64092	-354.73842	103.64092
22350.00000	103.53525	-357.92636	103.53525
22400.00000	103.45825	-361.20651	103.45825
22450.00000	103.36722	-363.91890	103.36722
22500.00000	103.27189	-366.93562	103.27189
22550.00000	103.19826	-370.12304	103.19826
22600.00000	103.06856	-372.85660	103.06856
22650.00000	102.97450	-375.48909	102.97450
22700.00000	102.85716	-378.43508	102.85716
22750.00000	102.72124	-381.51863	102.72124
22800.00000	102.61154	-384.16011	102.61154
22850.00000	102.45031	-386.94320	102.45031
22900.00000	102.42180	-389.16962	102.42180
22950.00000	102.28339	-392.33621	102.28339
23000.00000	102.19319	-394.72188	102.19319
23050.00000	102.07578	-397.77607	102.07578
23100.00000	101.96948	-400.44226	101.96948
23150.00000	101.78985	-403.14515	101.78985
