---ACOUSTIC CALIBRATION---
Filename: C:\Data\CL0809 DATA\CL08091\RightSecondary.calib
Date: 8/9/2019 9:36:48 AM
Format: 4
Probe Tube Correction File: C:\Data\Probe Tube Calibrations\74_ProbeTube.calib
Experiment VIs: 2128
EPL_CFTS.exe V15.0.1f5 (2015)
DAQmx V15.1

Attenuation (dB): 40.000000
Min Freq (Hz): 50.000000
Max Freq (Hz): 99950.000000
Freq Step (Hz): 50.000000
Sample Rate (Hz): 200000.000000
[Smoothing]
Method=None
MA.Iterations=0
MA.Length=0
Loess.Length=0
Loess.Type=Linear
Loess.Robust=FALSE


Freq(Hz)	Mag(dB)	Phase(deg)	Unsmoothed(dB)

50.00000	88.41457	170.78878	88.41457
100.00000	70.83898	306.46130	70.83898
150.00000	56.18619	417.88996	56.18619
200.00000	60.19265	528.43865	60.19265
250.00000	49.90315	785.60707	49.90315
300.00000	66.60067	863.01243	66.60067
350.00000	67.63803	1001.68319	67.63803
400.00000	63.46879	1075.45067	63.46879
450.00000	70.74674	1114.45893	70.74674
500.00000	75.89309	1216.38319	75.89309
550.00000	81.62878	1148.12832	81.62878
600.00000	80.41389	1109.43941	80.41389
650.00000	87.46481	1097.55321	87.46481
700.00000	86.46427	1096.90064	86.46427
750.00000	90.71627	1062.60282	90.71627
800.00000	91.75745	1044.26180	91.75745
850.00000	90.92913	1033.91101	90.92913
900.00000	91.41407	1027.79275	91.41407
950.00000	92.82030	1013.40245	92.82030
1000.00000	93.00816	1006.91365	93.00816
1050.00000	93.15118	991.84479	93.15118
1100.00000	92.60576	981.64390	92.60576
1150.00000	91.76132	978.29905	91.76132
1200.00000	90.98542	980.78318	90.98542
1250.00000	91.32538	985.30274	91.32538
1300.00000	92.33750	986.51027	92.33750
1350.00000	93.16705	984.97784	93.16705
1400.00000	94.00872	984.82807	94.00872
1450.00000	94.74239	982.54228	94.74239
1500.00000	95.99511	982.65765	95.99511
1550.00000	97.31290	977.89507	97.31290
1600.00000	98.68336	974.15256	98.68336
1650.00000	99.92627	970.25309	99.92627
1700.00000	104.17823	953.89658	104.17823
1750.00000	101.39183	932.96911	101.39183
1800.00000	101.22602	927.03515	101.22602
1850.00000	100.97819	919.32760	100.97819
1900.00000	100.92905	912.72620	100.92905
1950.00000	100.43013	906.39797	100.43013
2000.00000	99.76694	900.47859	99.76694
2050.00000	98.79618	898.78597	98.79618
2100.00000	98.42199	903.86753	98.42199
2150.00000	99.66300	904.14963	99.66300
2200.00000	100.17412	895.54955	100.17412
2250.00000	99.72586	889.30207	99.72586
2300.00000	99.37520	887.65157	99.37520
2350.00000	99.36256	884.57200	99.36256
2400.00000	99.42147	882.54501	99.42147
2450.00000	99.24124	878.39113	99.24124
2500.00000	98.74473	878.66468	98.74473
2550.00000	98.93851	878.55748	98.93851
2600.00000	99.09447	877.49211	99.09447
2650.00000	99.26924	877.10931	99.26924
2700.00000	99.48310	875.45350	99.48310
2750.00000	99.72963	874.10463	99.72963
2800.00000	100.03300	871.72724	100.03300
2850.00000	100.30409	869.71167	100.30409
2900.00000	100.60931	867.07624	100.60931
2950.00000	100.88694	864.73972	100.88694
3000.00000	101.13516	862.46424	101.13516
3050.00000	101.37232	859.48784	101.37232
3100.00000	101.55680	856.49088	101.55680
3150.00000	101.57225	854.06709	101.57225
3200.00000	101.77342	851.19076	101.77342
3250.00000	101.99692	848.96546	101.99692
3300.00000	102.02470	846.64136	102.02470
3350.00000	102.24890	844.89986	102.24890
3400.00000	102.35389	842.86544	102.35389
3450.00000	102.47120	841.83296	102.47120
3500.00000	102.61869	841.05712	102.61869
3550.00000	103.26114	839.34513	103.26114
3600.00000	103.32738	836.22933	103.32738
3650.00000	103.64655	836.38957	103.64655
3700.00000	103.95433	835.45496	103.95433
3750.00000	104.59383	832.99096	104.59383
3800.00000	105.54009	831.33808	105.54009
3850.00000	106.22219	821.91586	106.22219
3900.00000	106.67270	813.88532	106.67270
3950.00000	105.93361	810.02324	105.93361
4000.00000	105.54107	810.94186	105.54107
4050.00000	105.87327	811.79736	105.87327
4100.00000	106.49136	811.90453	106.49136
4150.00000	108.06312	809.11576	108.06312
4200.00000	109.00460	804.60815	109.00460
4250.00000	109.11640	792.05696	109.11640
4300.00000	109.22909	788.92752	109.22909
4350.00000	109.63032	783.95780	109.63032
4400.00000	109.95520	777.82198	109.95520
4450.00000	110.05333	770.69050	110.05333
4500.00000	110.15382	764.44505	110.15382
4550.00000	110.04633	758.99896	110.04633
4600.00000	110.07145	753.40415	110.07145
4650.00000	110.05332	748.42596	110.05332
4700.00000	109.99517	743.53254	109.99517
4750.00000	109.94072	738.90447	109.94072
4800.00000	109.93979	734.56665	109.93979
4850.00000	109.94648	729.86280	109.94648
4900.00000	109.95001	724.48889	109.95001
4950.00000	109.92015	719.40028	109.92015
5000.00000	109.82782	713.86732	109.82782
5050.00000	109.69090	708.45163	109.69090
5100.00000	109.50461	703.06157	109.50461
5150.00000	109.24447	697.73599	109.24447
5200.00000	108.89715	692.25965	108.89715
5250.00000	108.22819	687.53842	108.22819
5300.00000	107.65159	688.59910	107.65159
5350.00000	108.18985	685.83625	108.18985
5400.00000	108.13162	679.69941	108.13162
5450.00000	107.81368	674.72773	107.81368
5500.00000	107.48034	670.37241	107.48034
5550.00000	107.17748	666.85650	107.17748
5600.00000	106.88493	662.73071	106.88493
5650.00000	106.47997	659.31629	106.47997
5700.00000	106.12578	655.92724	106.12578
5750.00000	105.80818	652.74994	105.80818
5800.00000	105.44522	649.98619	105.44522
5850.00000	105.07072	647.30207	105.07072
5900.00000	104.73038	644.67476	104.73038
5950.00000	104.41907	642.45893	104.41907
6000.00000	104.12806	640.23644	104.12806
6050.00000	103.86755	637.77565	103.86755
6100.00000	103.57490	635.37081	103.57490
6150.00000	103.25535	632.90662	103.25535
6200.00000	102.92590	630.89575	102.92590
6250.00000	102.61147	628.91195	102.61147
6300.00000	102.30075	627.14772	102.30075
6350.00000	101.98959	625.47555	101.98959
6400.00000	101.70389	624.07850	101.70389
6450.00000	101.42234	622.76009	101.42234
6500.00000	101.16672	621.67643	101.16672
6550.00000	100.94816	620.56548	100.94816
6600.00000	100.74294	619.58513	100.74294
6650.00000	100.55717	618.67478	100.55717
6700.00000	100.37988	617.94912	100.37988
6750.00000	100.28333	617.56528	100.28333
6800.00000	100.27682	616.89602	100.27682
6850.00000	100.34343	615.86622	100.34343
6900.00000	100.44137	614.06199	100.44137
6950.00000	100.45638	611.69762	100.45638
7000.00000	100.44028	608.93153	100.44028
7050.00000	100.30596	606.24152	100.30596
7100.00000	100.12678	603.59540	100.12678
7150.00000	99.89343	601.14465	99.89343
7200.00000	99.62162	599.05646	99.62162
7250.00000	99.32704	597.50041	99.32704
7300.00000	99.05852	596.26049	99.05852
7350.00000	98.78522	595.43471	98.78522
7400.00000	98.53580	595.10159	98.53580
7450.00000	98.33663	594.96704	98.33663
7500.00000	98.23212	594.99563	98.23212
7550.00000	98.17335	595.04770	98.17335
7600.00000	98.20610	595.10634	98.20610
7650.00000	98.30754	594.88475	98.30754
7700.00000	98.43139	594.15220	98.43139
7750.00000	98.58013	592.86880	98.58013
7800.00000	98.73262	591.46944	98.73262
7850.00000	98.85204	589.67255	98.85204
7900.00000	98.94740	587.51594	98.94740
7950.00000	98.98138	585.62590	98.98138
8000.00000	99.01544	583.40094	99.01544
8050.00000	99.06310	581.24950	99.06310
8100.00000	99.05731	578.90874	99.05731
8150.00000	99.06867	576.81127	99.06867
8200.00000	99.05009	574.47407	99.05009
8250.00000	99.00611	572.15385	99.00611
8300.00000	98.97249	570.11185	98.97249
8350.00000	98.88435	567.81654	98.88435
8400.00000	98.84506	565.74014	98.84506
8450.00000	98.75311	563.55534	98.75311
8500.00000	98.65620	561.40823	98.65620
8550.00000	98.53326	559.71443	98.53326
8600.00000	98.43461	557.83417	98.43461
8650.00000	98.30734	556.06254	98.30734
8700.00000	98.17002	554.46228	98.17002
8750.00000	98.05979	552.91035	98.05979
8800.00000	97.95263	551.30358	97.95263
8850.00000	97.81189	550.16790	97.81189
8900.00000	97.67706	548.87168	97.67706
8950.00000	97.56444	548.00307	97.56444
9000.00000	97.41516	547.20880	97.41516
9050.00000	97.30690	546.14111	97.30690
9100.00000	97.20683	545.50908	97.20683
9150.00000	97.14760	544.59173	97.14760
9200.00000	97.06742	544.07237	97.06742
9250.00000	96.96051	543.53624	96.96051
9300.00000	96.92784	542.77359	96.92784
9350.00000	96.90537	542.23592	96.90537
9400.00000	96.87333	541.68562	96.87333
9450.00000	96.90087	541.10639	96.90087
9500.00000	96.93516	540.40506	96.93516
9550.00000	97.00234	539.68183	97.00234
9600.00000	97.07970	539.28783	97.07970
9650.00000	97.22243	538.61567	97.22243
9700.00000	97.31422	537.56581	97.31422
9750.00000	97.46745	536.86635	97.46745
9800.00000	97.57451	536.05411	97.57451
9850.00000	97.78265	535.45447	97.78265
9900.00000	97.97879	534.78938	97.97879
9950.00000	98.19090	534.04776	98.19090
10000.00000	98.47553	533.37002	98.47553
10050.00000	98.80227	532.42326	98.80227
10100.00000	99.15736	530.94648	99.15736
10150.00000	99.41302	529.01492	99.41302
10200.00000	99.67318	527.35857	99.67318
10250.00000	99.92224	525.66616	99.92224
10300.00000	100.19973	523.91064	100.19973
10350.00000	100.47965	521.85311	100.47965
10400.00000	100.71949	519.55221	100.71949
10450.00000	101.00412	517.03794	101.00412
10500.00000	101.28193	514.14781	101.28193
10550.00000	101.52438	511.36676	101.52438
10600.00000	101.81040	507.93282	101.81040
10650.00000	102.02571	504.61726	102.02571
10700.00000	102.23603	500.78391	102.23603
10750.00000	102.42364	497.16002	102.42364
10800.00000	102.60206	493.04600	102.60206
10850.00000	102.75723	488.93546	102.75723
10900.00000	102.86599	484.96397	102.86599
10950.00000	102.92478	480.84499	102.92478
11000.00000	102.99887	476.87209	102.99887
11050.00000	102.94090	472.86175	102.94090
11100.00000	102.94112	469.04826	102.94112
11150.00000	102.87116	465.09894	102.87116
11200.00000	102.79700	461.59257	102.79700
11250.00000	102.64406	457.61035	102.64406
11300.00000	102.47974	454.18090	102.47974
11350.00000	102.31153	450.52965	102.31153
11400.00000	102.07982	446.96797	102.07982
11450.00000	101.86368	443.51433	101.86368
11500.00000	101.63192	440.24513	101.63192
11550.00000	101.38252	436.99373	101.38252
11600.00000	101.12786	434.08417	101.12786
11650.00000	100.87521	431.18311	100.87521
11700.00000	100.65630	428.43743	100.65630
11750.00000	100.39141	425.94197	100.39141
11800.00000	100.19603	423.82082	100.19603
11850.00000	99.99706	421.65053	99.99706
11900.00000	99.73689	420.08112	99.73689
11950.00000	99.57041	418.43758	99.57041
12000.00000	99.39693	417.31650	99.39693
12050.00000	99.16894	416.42356	99.16894
12100.00000	98.93892	415.41648	98.93892
12150.00000	98.71175	414.60672	98.71175
12200.00000	98.54815	413.33866	98.54815
12250.00000	98.35602	412.93590	98.35602
12300.00000	98.06740	411.94578	98.06740
12350.00000	97.94909	411.09551	97.94909
12400.00000	97.68808	409.67963	97.68808
12450.00000	97.68347	408.71902	97.68347
12500.00000	97.59195	408.00632	97.59195
12550.00000	97.52266	407.28748	97.52266
12600.00000	97.55111	405.33536	97.55111
12650.00000	97.58229	404.82889	97.58229
12700.00000	97.48697	403.18627	97.48697
12750.00000	97.49400	402.42514	97.49400
12800.00000	97.53044	401.16422	97.53044
12850.00000	97.42387	400.68038	97.42387
12900.00000	97.38175	398.60001	97.38175
12950.00000	97.52204	396.41772	97.52204
13000.00000	97.44974	393.75800	97.44974
13050.00000	97.46581	391.16441	97.46581
13100.00000	97.53904	388.09359	97.53904
13150.00000	97.85571	385.49601	97.85571
13200.00000	98.16583	380.71302	98.16583
13250.00000	98.86356	374.84026	98.86356
13300.00000	99.66737	374.20016	99.66737
13350.00000	100.77041	371.71957	100.77041
13400.00000	101.96163	374.67539	101.96163
13450.00000	102.66531	383.05162	102.66531
13500.00000	102.29828	395.83856	102.29828
13550.00000	101.10094	401.07074	101.10094
13600.00000	99.44642	402.54708	99.44642
13650.00000	97.81419	398.93761	97.81419
13700.00000	96.56767	392.96252	96.56767
13750.00000	95.72970	383.13202	95.72970
13800.00000	95.42323	374.04116	95.42323
13850.00000	95.45284	364.15305	95.45284
13900.00000	95.72770	353.84079	95.72770
13950.00000	96.61360	346.04684	96.61360
14000.00000	97.88372	339.86388	97.88372
14050.00000	99.65166	338.78547	99.65166
14100.00000	101.57959	340.76567	101.57959
14150.00000	102.90782	352.78946	102.90782
14200.00000	102.77713	366.56011	102.77713
14250.00000	101.34045	377.06729	101.34045
14300.00000	99.74831	380.60192	99.74831
14350.00000	98.38324	377.24220	98.38324
14400.00000	97.41059	373.75103	97.41059
14450.00000	96.67868	367.43126	96.67868
14500.00000	96.21218	360.47666	96.21218
14550.00000	96.12829	353.02339	96.12829
14600.00000	96.12443	347.48832	96.12443
14650.00000	96.39921	341.10393	96.39921
14700.00000	96.95594	335.22416	96.95594
14750.00000	97.54211	331.15833	97.54211
14800.00000	98.23938	328.66793	98.23938
14850.00000	99.12055	328.22557	99.12055
14900.00000	99.89099	329.41377	99.89099
14950.00000	100.27895	332.91101	100.27895
15000.00000	100.31878	336.30854	100.31878
15050.00000	99.97903	339.71734	99.97903
15100.00000	99.45326	340.34343	99.45326
15150.00000	98.84123	338.87645	98.84123
15200.00000	98.43029	336.41702	98.43029
15250.00000	97.83981	333.37338	97.83981
15300.00000	97.66667	329.15876	97.66667
15350.00000	97.63213	325.30514	97.63213
15400.00000	97.73513	320.92244	97.73513
15450.00000	97.87762	316.83834	97.87762
15500.00000	98.27784	313.84686	98.27784
15550.00000	98.71558	312.11301	98.71558
15600.00000	99.14284	310.15384	99.14284
15650.00000	99.45453	309.66755	99.45453
15700.00000	99.58828	310.40354	99.58828
15750.00000	99.67269	310.52415	99.67269
15800.00000	99.53385	311.47976	99.53385
15850.00000	99.46668	311.63270	99.46668
15900.00000	99.20827	310.05785	99.20827
15950.00000	99.00661	308.56875	99.00661
16000.00000	98.88769	306.32382	98.88769
16050.00000	98.91162	303.61729	98.91162
16100.00000	98.87552	301.06243	98.87552
16150.00000	99.07843	298.59084	99.07843
16200.00000	99.27290	296.92034	99.27290
16250.00000	99.51472	294.54143	99.51472
16300.00000	99.76490	292.99557	99.76490
16350.00000	100.07554	291.81162	100.07554
16400.00000	100.15548	290.76145	100.15548
16450.00000	100.43999	290.35541	100.43999
16500.00000	100.52057	289.40320	100.52057
16550.00000	100.51334	288.29703	100.51334
16600.00000	100.51881	286.91447	100.51881
16650.00000	100.65200	285.17010	100.65200
16700.00000	100.69421	283.55554	100.69421
16750.00000	100.87457	280.97853	100.87457
16800.00000	101.05321	278.91743	101.05321
16850.00000	101.28148	276.01377	101.28148
16900.00000	101.44955	274.08680	101.44955
16950.00000	101.67641	271.84322	101.67641
17000.00000	101.90226	269.70103	101.90226
17050.00000	102.07517	267.79308	102.07517
17100.00000	102.21284	266.06018	102.21284
17150.00000	102.34411	264.28551	102.34411
17200.00000	102.40696	262.06767	102.40696
17250.00000	102.53697	259.60311	102.53697
17300.00000	102.60046	256.82209	102.60046
17350.00000	102.68633	254.37848	102.68633
17400.00000	102.76243	251.67421	102.76243
17450.00000	102.88950	249.04808	102.88950
17500.00000	102.99353	246.55798	102.99353
17550.00000	103.16050	243.99165	103.16050
17600.00000	103.31876	241.66439	103.31876
17650.00000	103.43994	239.42213	103.43994
17700.00000	103.57302	237.10279	103.57302
17750.00000	103.69367	234.66710	103.69367
17800.00000	103.77066	232.20472	103.77066
17850.00000	103.85498	229.59711	103.85498
17900.00000	103.94051	226.98935	103.94051
17950.00000	103.97178	224.57935	103.97178
18000.00000	104.05383	221.79627	104.05383
18050.00000	104.09378	218.95382	104.09378
18100.00000	104.13658	216.46946	104.13658
18150.00000	104.19287	213.68814	104.19287
18200.00000	104.21258	211.00600	104.21258
18250.00000	104.25878	208.52442	104.25878
18300.00000	104.31246	205.90843	104.31246
18350.00000	104.38382	203.15157	104.38382
18400.00000	104.37164	200.33367	104.37164
18450.00000	104.39097	197.93387	104.39097
18500.00000	104.40156	195.60044	104.40156
18550.00000	104.44290	192.90700	104.44290
18600.00000	104.42968	190.58860	104.42968
18650.00000	104.50454	188.08264	104.50454
18700.00000	104.52133	185.50003	104.52133
18750.00000	104.51122	183.19851	104.51122
18800.00000	104.51688	180.45295	104.51688
18850.00000	104.51541	178.17214	104.51541
18900.00000	104.46397	175.75757	104.46397
18950.00000	104.43382	173.26507	104.43382
19000.00000	104.38532	171.01853	104.38532
19050.00000	104.37430	168.67644	104.37430
19100.00000	104.36803	166.36380	104.36803
19150.00000	104.35426	164.45570	104.35426
19200.00000	104.35223	162.03778	104.35223
19250.00000	104.33884	160.13095	104.33884
19300.00000	104.34215	157.99956	104.34215
19350.00000	104.30911	155.77145	104.30911
19400.00000	104.26363	154.09578	104.26363
19450.00000	104.28567	152.05757	104.28567
19500.00000	104.30276	150.52213	104.30276
19550.00000	104.36846	148.66681	104.36846
19600.00000	104.38582	146.79101	104.38582
19650.00000	104.46049	144.71870	104.46049
19700.00000	104.52715	142.69508	104.52715
19750.00000	104.58872	140.55721	104.58872
19800.00000	104.64023	138.76169	104.64023
19850.00000	104.69623	136.38837	104.69623
19900.00000	104.76195	134.30790	104.76195
19950.00000	104.79996	132.31609	104.79996
20000.00000	104.84270	129.92387	104.84270
20050.00000	104.93498	127.79086	104.93498
20100.00000	104.99604	125.44943	104.99604
20150.00000	105.06157	123.04331	105.06157
20200.00000	105.15455	121.04760	105.15455
20250.00000	105.21738	118.69979	105.21738
20300.00000	105.28225	116.32911	105.28225
20350.00000	105.35415	113.94765	105.35415
20400.00000	105.44429	111.51103	105.44429
20450.00000	105.52584	108.90974	105.52584
20500.00000	105.57246	106.26683	105.57246
20550.00000	105.62648	103.66377	105.62648
20600.00000	105.66317	101.01102	105.66317
20650.00000	105.70393	98.27662	105.70393
20700.00000	105.71757	95.99528	105.71757
20750.00000	105.73775	93.46741	105.73775
20800.00000	105.76992	90.84219	105.76992
20850.00000	105.79378	87.90305	105.79378
20900.00000	105.77905	85.62976	105.77905
20950.00000	105.82587	82.77794	105.82587
21000.00000	105.85441	80.01045	105.85441
21050.00000	105.88193	77.26083	105.88193
21100.00000	105.87469	74.37001	105.87469
21150.00000	105.85427	71.83229	105.85427
21200.00000	105.80103	69.37374	105.80103
21250.00000	105.74994	66.78303	105.74994
21300.00000	105.71151	63.95802	105.71151
21350.00000	105.64456	61.35954	105.64456
21400.00000	105.61212	58.62031	105.61212
21450.00000	105.63345	56.17684	105.63345
21500.00000	105.60173	53.98734	105.60173
21550.00000	105.54877	51.53056	105.54877
21600.00000	105.49653	48.88433	105.49653
21650.00000	105.43257	46.69890	105.43257
21700.00000	105.32415	44.02999	105.32415
21750.00000	105.26342	41.48853	105.26342
21800.00000	105.19026	38.99415	105.19026
21850.00000	105.16041	36.85332	105.16041
21900.00000	105.04724	34.72796	105.04724
21950.00000	105.00729	32.59182	105.00729
22000.00000	104.87144	30.63045	104.87144
22050.00000	104.80542	28.85741	104.80542
22100.00000	104.76170	27.22250	104.76170
22150.00000	104.68846	25.30167	104.68846
22200.00000	104.66123	23.43141	104.66123
22250.00000	104.68782	21.44244	104.68782
22300.00000	104.71008	19.40513	104.71008
22350.00000	104.65486	17.29220	104.65486
22400.00000	104.66678	15.21717	104.66678
22450.00000	104.66960	13.56855	104.66960
22500.00000	104.64861	11.42653	104.64861
22550.00000	104.65686	 9.49686	104.65686
22600.00000	104.61669	 7.73727	104.61669
22650.00000	104.63905	 6.02905	104.63905
22700.00000	104.62094	 3.92593	104.62094
22750.00000	104.66303	 1.60671	104.66303
22800.00000	104.66476	-0.36826	104.66476
22850.00000	104.70344	-2.52117	104.70344
22900.00000	104.77361	-4.31378	104.77361
22950.00000	104.79896	-6.35391	104.79896
23000.00000	104.81607	-8.56517	104.81607
23050.00000	104.81582	-10.93010	104.81582
23100.00000	104.81683	-13.08203	104.81683
23150.00000	104.78847	-15.40031	104.78847
23200.00000	104.79686	-17.97079	104.79686
23250.00000	104.89105	-20.40644	104.89105
23300.00000	104.94683	-22.97289	104.94683
