---ACOUSTIC CALIBRATION---
Filename: C:\Data\CL0809 DATA\CL08091\RightPrimary.calib
Date: 8/9/2019 9:36:41 AM
Format: 4
Probe Tube Correction File: C:\Data\Probe Tube Calibrations\74_ProbeTube.calib
Experiment VIs: 2128
EPL_CFTS.exe V15.0.1f5 (2015)
DAQmx V15.1

Attenuation (dB): 40.000000
Min Freq (Hz): 50.000000
Max Freq (Hz): 99950.000000
Freq Step (Hz): 50.000000
Sample Rate (Hz): 200000.000000
[Smoothing]
Method=None
MA.Iterations=0
MA.Length=0
Loess.Length=0
Loess.Type=Linear
Loess.Robust=FALSE


Freq(Hz)	Mag(dB)	Phase(deg)	Unsmoothed(dB)

50.00000	98.45216	93.96593	98.45216
100.00000	64.72054	-12.92966	64.72054
150.00000	68.29800	276.67916	68.29800
200.00000	61.47165	516.64596	61.47165
250.00000	48.23834	635.44965	48.23834
300.00000	66.12286	867.98783	66.12286
350.00000	58.92035	999.55777	58.92035
400.00000	56.22937	1079.22530	56.22937
450.00000	58.14271	1115.12792	58.14271
500.00000	65.90836	1214.40393	65.90836
550.00000	69.63974	1155.33199	69.63974
600.00000	69.36112	1118.57306	69.36112
650.00000	76.03397	1118.44237	76.03397
700.00000	75.05556	1122.78058	75.05556
750.00000	78.34360	1087.27509	78.34360
800.00000	79.70745	1080.86300	79.70745
850.00000	78.62564	1074.90942	78.62564
900.00000	78.86351	1083.02098	78.86351
950.00000	81.98134	1082.01470	81.98134
1000.00000	83.99400	1086.00049	83.99400
1050.00000	87.21588	1078.37301	87.21588
1100.00000	89.93017	1065.30124	89.93017
1150.00000	91.62946	1050.42579	91.62946
1200.00000	92.51905	1036.47102	92.51905
1250.00000	92.92568	1025.30616	92.92568
1300.00000	93.71581	1020.46220	93.71581
1350.00000	95.10586	1011.05012	95.10586
1400.00000	95.97857	999.27651	95.97857
1450.00000	96.27863	987.89808	96.27863
1500.00000	96.54183	978.59029	96.54183
1550.00000	96.59257	969.51281	96.59257
1600.00000	96.98388	965.33811	96.98388
1650.00000	97.47455	962.57542	97.47455
1700.00000	101.31521	947.44823	101.31521
1750.00000	98.31939	927.99693	98.31939
1800.00000	98.09817	922.65603	98.09817
1850.00000	97.82489	914.87064	97.82489
1900.00000	97.58691	907.84427	97.58691
1950.00000	96.89207	902.89702	96.89207
2000.00000	96.40462	899.79503	96.40462
2050.00000	96.41550	900.34279	96.41550
2100.00000	97.27292	896.76319	97.27292
2150.00000	97.84230	888.14559	97.84230
2200.00000	97.61829	876.33833	97.61829
2250.00000	96.64261	869.46063	96.64261
2300.00000	96.19328	868.53788	96.19328
2350.00000	96.40062	863.17816	96.40062
2400.00000	96.33723	856.93200	96.33723
2450.00000	95.85584	849.22384	95.85584
2500.00000	94.93803	846.21153	94.93803
2550.00000	94.66850	843.05207	94.66850
2600.00000	94.35998	839.53624	94.35998
2650.00000	93.91453	836.54751	93.91453
2700.00000	93.49767	832.64616	93.49767
2750.00000	93.03435	829.26492	93.03435
2800.00000	92.57937	826.39548	92.57937
2850.00000	92.06730	824.04776	92.06730
2900.00000	91.63402	822.28009	91.63402
2950.00000	91.14701	820.80141	91.14701
3000.00000	90.75774	820.33730	90.75774
3050.00000	90.41900	819.55765	90.41900
3100.00000	90.21465	818.11743	90.21465
3150.00000	89.84064	817.47271	89.84064
3200.00000	89.65202	815.37754	89.65202
3250.00000	89.45350	813.71946	89.45350
3300.00000	88.93744	811.88047	88.93744
3350.00000	88.66029	811.02830	88.66029
3400.00000	88.21390	810.64918	88.21390
3450.00000	87.78991	810.14701	87.78991
3500.00000	87.43729	810.14285	87.43729
3550.00000	87.50549	808.07194	87.50549
3600.00000	86.72028	804.20286	86.72028
3650.00000	86.04422	803.89114	86.04422
3700.00000	84.89760	803.24435	84.89760
3750.00000	83.82741	802.76232	83.82741
3800.00000	82.77178	805.50665	82.77178
3850.00000	80.87187	806.35578	80.87187
3900.00000	79.17760	817.26224	79.17760
3950.00000	77.40559	835.38548	77.40559
4000.00000	77.24774	866.87286	77.24774
4050.00000	79.48138	886.05663	79.48138
4100.00000	82.54742	897.51306	82.54742
4150.00000	85.91335	900.19802	85.91335
4200.00000	88.24333	899.31275	88.24333
4250.00000	89.42201	890.71876	89.42201
4300.00000	90.53508	891.80401	90.53508
4350.00000	91.96410	890.94094	91.96410
4400.00000	93.40166	887.93164	93.40166
4450.00000	94.49929	882.84182	94.49929
4500.00000	95.46573	878.59404	95.46573
4550.00000	96.21785	874.84308	96.21785
4600.00000	96.98567	870.87762	96.98567
4650.00000	97.65210	867.79949	97.65210
4700.00000	98.31290	866.05536	98.31290
4750.00000	99.20218	864.61558	99.20218
4800.00000	100.26888	862.50362	100.26888
4850.00000	101.35905	859.17776	101.35905
4900.00000	102.43347	854.69194	102.43347
4950.00000	103.50340	850.33654	103.50340
5000.00000	104.63018	845.39204	104.63018
5050.00000	105.86294	839.90960	105.86294
5100.00000	107.25038	833.56936	107.25038
5150.00000	108.93093	825.70985	108.93093
5200.00000	111.09225	814.01999	111.09225
5250.00000	113.84174	791.84303	113.84174
5300.00000	114.69156	745.34258	114.69156
5350.00000	109.37156	706.91864	109.37156
5400.00000	102.87990	701.46775	102.87990
5450.00000	98.53205	721.31315	98.53205
5500.00000	98.30114	738.68696	98.30114
5550.00000	97.57700	740.65711	97.57700
5600.00000	95.72804	754.61175	95.72804
5650.00000	96.64245	774.92668	96.64245
5700.00000	98.71289	782.38567	98.71289
5750.00000	100.47347	782.78326	100.47347
5800.00000	101.81285	780.38312	101.81285
5850.00000	102.82249	776.39998	102.82249
5900.00000	103.54434	771.42047	103.54434
5950.00000	103.98377	766.57793	103.98377
6000.00000	104.21647	762.69513	104.21647
6050.00000	104.34436	760.10173	104.34436
6100.00000	104.56073	758.89458	104.56073
6150.00000	104.90144	758.21900	104.90144
6200.00000	105.41695	757.94862	105.41695
6250.00000	106.08073	757.12511	106.08073
6300.00000	106.86710	755.80429	106.86710
6350.00000	107.74808	753.65707	107.74808
6400.00000	108.68696	750.85989	108.68696
6450.00000	109.67622	747.07780	109.67622
6500.00000	110.69152	742.23722	110.69152
6550.00000	111.69100	736.21125	111.69100
6600.00000	112.58918	729.20504	112.58918
6650.00000	113.40389	721.52754	113.40389
6700.00000	114.17068	713.29162	114.17068
6750.00000	114.87930	704.05355	114.87930
6800.00000	115.44230	693.62106	115.44230
6850.00000	115.76090	682.36272	115.76090
6900.00000	115.79002	671.02136	115.79002
6950.00000	115.57023	660.38530	115.57023
7000.00000	115.19191	650.76641	115.19191
7050.00000	114.74041	642.26181	114.74041
7100.00000	114.24473	634.59270	114.24473
7150.00000	113.73126	627.65749	113.73126
7200.00000	113.21974	621.48418	113.21974
7250.00000	112.75150	615.85335	112.75150
7300.00000	112.32291	610.39378	112.32291
7350.00000	111.90647	605.03267	111.90647
7400.00000	111.47984	599.73088	111.47984
7450.00000	111.03893	594.51898	111.03893
7500.00000	110.58163	589.57146	110.58163
7550.00000	110.09888	584.65864	110.09888
7600.00000	109.59567	580.06395	109.59567
7650.00000	109.07511	575.61564	109.07511
7700.00000	108.53585	571.66831	108.53585
7750.00000	107.99449	567.84131	107.99449
7800.00000	107.46214	564.55537	107.46214
7850.00000	106.93053	561.39039	106.93053
7900.00000	106.42083	558.45492	106.42083
7950.00000	105.94628	555.82054	105.94628
8000.00000	105.46648	553.40356	105.46648
8050.00000	105.00859	551.14910	105.00859
8100.00000	104.58560	548.99900	104.58560
8150.00000	104.16688	547.05697	104.16688
8200.00000	103.78462	544.96982	103.78462
8250.00000	103.39189	543.13203	103.39189
8300.00000	103.04350	541.34998	103.04350
8350.00000	102.69929	539.59107	102.69929
8400.00000	102.36338	538.04179	102.36338
8450.00000	102.05537	536.31643	102.05537
8500.00000	101.74772	534.73434	101.74772
8550.00000	101.44493	533.21914	101.44493
8600.00000	101.14081	531.70791	101.14081
8650.00000	100.85763	530.50374	100.85763
8700.00000	100.57091	529.28960	100.57091
8750.00000	100.31235	528.08978	100.31235
8800.00000	100.05710	526.82688	100.05710
8850.00000	99.84110	525.56520	99.84110
8900.00000	99.59749	524.62171	99.59749
8950.00000	99.41584	523.85921	99.41584
9000.00000	99.17831	522.92468	99.17831
9050.00000	99.00818	522.13006	99.00818
9100.00000	98.81890	521.43626	98.81890
9150.00000	98.70701	520.78635	98.70701
9200.00000	98.57624	520.03706	98.57624
9250.00000	98.41349	519.61592	98.41349
9300.00000	98.38077	518.91377	98.38077
9350.00000	98.32406	518.33450	98.32406
9400.00000	98.23580	517.73808	98.23580
9450.00000	98.24538	517.38579	98.24538
9500.00000	98.29965	516.60272	98.29965
9550.00000	98.36104	515.92098	98.36104
9600.00000	98.40645	515.18257	98.40645
9650.00000	98.50383	514.13540	98.50383
9700.00000	98.58634	512.86588	98.58634
9750.00000	98.66289	511.64713	98.66289
9800.00000	98.71998	510.27855	98.71998
9850.00000	98.75101	508.90767	98.75101
9900.00000	98.71424	508.13084	98.71424
9950.00000	98.61412	508.00870	98.61412
10000.00000	98.68125	510.26979	98.68125
10050.00000	99.32962	512.73184	99.32962
10100.00000	100.37309	510.65303	100.37309
10150.00000	100.91603	505.81409	100.91603
10200.00000	101.22619	501.46793	101.22619
10250.00000	101.41360	497.90598	101.41360
10300.00000	101.64014	494.44635	101.64014
10350.00000	101.87159	490.95762	101.87159
10400.00000	102.02701	487.48297	102.02701
10450.00000	102.24577	483.89389	102.24577
10500.00000	102.47121	480.01781	102.47121
10550.00000	102.66039	476.12012	102.66039
10600.00000	102.89346	471.64433	102.89346
10650.00000	103.05908	467.39263	103.05908
10700.00000	103.21634	462.63532	103.21634
10750.00000	103.32767	458.00947	103.32767
10800.00000	103.43382	452.94071	103.43382
10850.00000	103.50615	447.87022	103.50615
10900.00000	103.52839	442.80541	103.52839
10950.00000	103.48231	437.62152	103.48231
11000.00000	103.44876	432.48662	103.44876
11050.00000	103.28763	427.44284	103.28763
11100.00000	103.17809	422.48651	103.17809
11150.00000	102.98375	417.39103	102.98375
11200.00000	102.79514	412.71115	102.79514
11250.00000	102.52334	407.59282	102.52334
11300.00000	102.25710	402.99113	102.25710
11350.00000	101.97521	398.18577	101.97521
11400.00000	101.63265	393.44872	101.63265
11450.00000	101.27807	388.91593	101.27807
11500.00000	100.94575	384.42539	100.94575
11550.00000	100.56340	380.05155	100.56340
11600.00000	100.17833	375.96713	100.17833
11650.00000	99.79544	372.04538	99.79544
11700.00000	99.46104	367.95054	99.46104
11750.00000	99.04891	364.16854	99.04891
11800.00000	98.68685	360.61291	98.68685
11850.00000	98.32136	357.01976	98.32136
11900.00000	97.91020	354.16990	97.91020
11950.00000	97.57683	350.75588	97.57683
12000.00000	97.23086	348.06322	97.23086
12050.00000	96.87913	345.37885	96.87913
12100.00000	96.47293	342.21072	96.47293
12150.00000	96.09773	339.30051	96.09773
12200.00000	95.72301	336.15966	95.72301
12250.00000	95.34908	333.52867	95.34908
12300.00000	94.85699	330.12151	94.85699
12350.00000	94.51688	327.28732	94.51688
12400.00000	94.09636	323.26238	94.09636
12450.00000	93.83378	319.87604	93.83378
12500.00000	93.47383	316.54930	93.47383
12550.00000	93.12442	313.24784	93.12442
12600.00000	92.86898	308.78899	92.86898
12650.00000	92.61480	305.52608	92.61480
12700.00000	92.14594	301.19141	92.14594
12750.00000	91.87495	297.43602	91.87495
12800.00000	91.61902	292.96630	91.61902
12850.00000	91.22367	288.82769	91.22367
12900.00000	90.94923	283.39999	90.94923
12950.00000	90.74330	277.06600	90.74330
13000.00000	90.45902	270.17388	90.45902
13050.00000	90.30540	264.14981	90.30540
13100.00000	90.23721	256.56852	90.23721
13150.00000	90.32666	249.41522	90.32666
13200.00000	90.66235	239.82660	90.66235
13250.00000	91.25813	229.41056	91.25813
13300.00000	92.15316	223.88498	92.15316
13350.00000	93.34154	216.63911	93.34154
13400.00000	94.78965	213.41125	94.78965
13450.00000	95.72478	216.34310	95.72478
13500.00000	95.70721	223.56405	95.70721
13550.00000	94.91373	223.57701	94.91373
13600.00000	93.78283	220.36044	93.78283
13650.00000	92.56620	211.59069	92.56620
13700.00000	91.88065	201.11755	91.88065
13750.00000	91.57384	186.42842	91.57384
13800.00000	91.80674	172.03234	91.80674
13850.00000	92.37801	157.41067	92.37801
13900.00000	93.18812	142.01729	93.18812
13950.00000	94.57300	129.05360	94.57300
14000.00000	96.28580	118.46873	96.28580
14050.00000	98.48856	112.35581	98.48856
14100.00000	100.89312	108.99708	100.89312
14150.00000	102.60458	115.63566	102.60458
14200.00000	102.86924	125.17413	102.86924
14250.00000	101.83625	131.49947	101.83625
14300.00000	100.61437	130.18967	100.61437
14350.00000	99.46764	123.13596	99.46764
14400.00000	98.83687	115.48929	98.83687
14450.00000	98.28975	105.58814	98.28975
14500.00000	98.07936	95.50752	98.07936
14550.00000	98.13489	84.47947	98.13489
14600.00000	98.29044	75.77940	98.29044
14650.00000	98.71852	66.59685	98.71852
14700.00000	99.32728	57.29294	99.32728
14750.00000	100.13038	50.20879	100.13038
14800.00000	100.94638	45.13820	100.94638
14850.00000	101.95834	41.37004	101.95834
14900.00000	102.93322	39.93667	102.93322
14950.00000	103.35660	40.80636	103.35660
15000.00000	103.46696	41.61710	103.46696
15050.00000	103.22554	42.32372	103.22554
15100.00000	102.79299	40.87031	102.79299
15150.00000	102.21418	37.27789	102.21418
15200.00000	101.77629	32.87796	101.77629
15250.00000	101.36862	27.55563	101.36862
15300.00000	101.07775	21.27815	101.07775
15350.00000	101.09426	15.60844	101.09426
15400.00000	101.15404	 9.31606	101.15404
15450.00000	101.31682	 2.79467	101.31682
15500.00000	101.65725	-1.59963	101.65725
15550.00000	102.03170	-5.26735	102.03170
15600.00000	102.44432	-8.40299	102.44432
15650.00000	102.79696	-9.93669	102.79696
15700.00000	102.90062	-11.47717	102.90062
15750.00000	103.05213	-11.43241	103.05213
15800.00000	102.92517	-12.16775	102.92517
15850.00000	102.87156	-12.68359	102.87156
15900.00000	102.58930	-15.43383	102.58930
15950.00000	102.46663	-18.15112	102.46663
16000.00000	102.34743	-21.52266	102.34743
16050.00000	102.37156	-25.53351	102.37156
16100.00000	102.41461	-28.93734	102.41461
16150.00000	102.60833	-32.90756	102.60833
16200.00000	102.81099	-36.18414	102.81099
16250.00000	103.06620	-39.84103	103.06620
16300.00000	103.30355	-42.93299	103.30355
16350.00000	103.58222	-45.53210	103.58222
16400.00000	103.70129	-47.52082	103.70129
16450.00000	103.88225	-49.43689	103.88225
16500.00000	103.93119	-51.69910	103.93119
16550.00000	103.89685	-53.58605	103.89685
16600.00000	103.94700	-55.99607	103.94700
16650.00000	103.94476	-59.07342	103.94476
16700.00000	104.00843	-62.20877	104.00843
16750.00000	104.07211	-65.48454	104.07211
16800.00000	104.19263	-68.77417	104.19263
16850.00000	104.34540	-72.53404	104.34540
16900.00000	104.52945	-75.37491	104.52945
16950.00000	104.64908	-78.72955	104.64908
17000.00000	104.79976	-81.78268	104.79976
17050.00000	104.87925	-84.32421	104.87925
17100.00000	104.97222	-86.93670	104.97222
17150.00000	105.03280	-89.73891	105.03280
17200.00000	105.00784	-92.37073	105.00784
17250.00000	105.01993	-95.39892	105.01993
17300.00000	104.99683	-98.58558	104.99683
17350.00000	105.03754	-101.87787	105.03754
17400.00000	105.03093	-105.39327	105.03093
17450.00000	105.07469	-108.25110	105.07469
17500.00000	105.10895	-111.30612	105.10895
17550.00000	105.18227	-114.76399	105.18227
17600.00000	105.27814	-117.48890	105.27814
17650.00000	105.32674	-120.50493	105.32674
17700.00000	105.40098	-123.50429	105.40098
17750.00000	105.44649	-126.28959	105.44649
17800.00000	105.44340	-129.28380	105.44340
17850.00000	105.42479	-132.11114	105.42479
17900.00000	105.45104	-135.05960	105.45104
17950.00000	105.41264	-138.05986	105.41264
18000.00000	105.40728	-141.22856	105.40728
18050.00000	105.35694	-144.33046	105.35694
18100.00000	105.31810	-147.38017	105.31810
18150.00000	105.28266	-150.35401	105.28266
18200.00000	105.22684	-153.26568	105.22684
18250.00000	105.20243	-156.06011	105.20243
18300.00000	105.17000	-159.02216	105.17000
18350.00000	105.11451	-162.15120	105.11451
18400.00000	105.03395	-164.82620	105.03395
18450.00000	104.95476	-167.35481	104.95476
18500.00000	104.94112	-169.94409	104.94112
18550.00000	104.87546	-172.70457	104.87546
18600.00000	104.80530	-175.02903	104.80530
18650.00000	104.80309	-177.68262	104.80309
18700.00000	104.75960	-180.16638	104.75960
18750.00000	104.69056	-182.74031	104.69056
18800.00000	104.61449	-185.21131	104.61449
18850.00000	104.54345	-187.50737	104.54345
18900.00000	104.44886	-189.77375	104.44886
18950.00000	104.36007	-192.04724	104.36007
19000.00000	104.31719	-194.38350	104.31719
19050.00000	104.28570	-196.64617	104.28570
19100.00000	104.22601	-198.97028	104.22601
19150.00000	104.17352	-200.82373	104.17352
19200.00000	104.15954	-203.16509	104.15954
19250.00000	104.10143	-205.17379	104.10143
19300.00000	104.10289	-207.36687	104.10289
19350.00000	104.05436	-209.46514	104.05436
19400.00000	104.00287	-211.26999	104.00287
19450.00000	104.00436	-213.43432	104.00436
19500.00000	104.02341	-215.21255	104.02341
19550.00000	104.03961	-217.33380	104.03961
19600.00000	104.05205	-219.36499	104.05205
19650.00000	104.09119	-221.61060	104.09119
19700.00000	104.12154	-223.95335	104.12154
19750.00000	104.09369	-226.06814	104.09369
19800.00000	104.11906	-227.95171	104.11906
19850.00000	104.12802	-230.43638	104.12802
19900.00000	104.13146	-232.68283	104.13146
19950.00000	104.15945	-234.66519	104.15945
20000.00000	104.17345	-237.24527	104.17345
20050.00000	104.17721	-239.39231	104.17721
20100.00000	104.20601	-241.57233	104.20601
20150.00000	104.22484	-243.87879	104.22484
20200.00000	104.27591	-246.24846	104.27591
20250.00000	104.27987	-248.25225	104.27987
20300.00000	104.33396	-250.45099	104.33396
20350.00000	104.36724	-252.77722	104.36724
20400.00000	104.39636	-255.07879	104.39636
20450.00000	104.42813	-257.57134	104.42813
20500.00000	104.44644	-260.01450	104.44644
20550.00000	104.48496	-262.57887	104.48496
20600.00000	104.48652	-264.98583	104.48652
20650.00000	104.48707	-267.45216	104.48707
20700.00000	104.53332	-269.39184	104.53332
20750.00000	104.55339	-271.77652	104.55339
20800.00000	104.54381	-274.20640	104.54381
20850.00000	104.58950	-276.75195	104.58950
20900.00000	104.61495	-279.10609	104.61495
20950.00000	104.65051	-281.70748	104.65051
21000.00000	104.71749	-284.31412	104.71749
21050.00000	104.73786	-286.99348	104.73786
21100.00000	104.76269	-289.64849	104.76269
21150.00000	104.76404	-292.02151	104.76404
21200.00000	104.76173	-294.39114	104.76173
21250.00000	104.74339	-296.90512	104.74339
21300.00000	104.73630	-299.74546	104.73630
21350.00000	104.74644	-302.32155	104.74644
21400.00000	104.73432	-305.19145	104.73432
21450.00000	104.78639	-307.64403	104.78639
21500.00000	104.82138	-310.24670	104.82138
21550.00000	104.81949	-312.73701	104.81949
21600.00000	104.81362	-315.59859	104.81362
21650.00000	104.80587	-318.07261	104.80587
21700.00000	104.73988	-321.15132	104.73988
21750.00000	104.75120	-323.69786	104.75120
21800.00000	104.71173	-326.81156	104.71173
21850.00000	104.66843	-329.54737	104.66843
21900.00000	104.65627	-332.03289	104.65627
21950.00000	104.64041	-334.89020	104.64041
22000.00000	104.55759	-337.53675	104.55759
22050.00000	104.47936	-340.10382	104.47936
22100.00000	104.42133	-342.52502	104.42133
22150.00000	104.38362	-345.02747	104.38362
22200.00000	104.32651	-347.87729	104.32651
22250.00000	104.29530	-350.44844	104.29530
22300.00000	104.24689	-353.14701	104.24689
22350.00000	104.17032	-356.02532	104.17032
22400.00000	104.08287	-358.84314	104.08287
22450.00000	104.02595	-361.46652	104.02595
22500.00000	103.89845	-363.90849	103.89845
22550.00000	103.82368	-366.50071	103.82368
22600.00000	103.70597	-368.73269	103.70597
22650.00000	103.59939	-371.04475	103.59939
22700.00000	103.46036	-373.30792	103.46036
22750.00000	103.41220	-375.77537	103.41220
22800.00000	103.29299	-378.13003	103.29299
22850.00000	103.17733	-380.49542	103.17733
22900.00000	103.13266	-382.40040	103.13266
22950.00000	103.05084	-384.84907	103.05084
23000.00000	102.95300	-387.26803	102.95300
23050.00000	102.82588	-389.19212	102.82588
23100.00000	102.76354	-391.36578	102.76354
