---ACOUSTIC CALIBRATION---
Filename: C:\Data\AZH DATA\AZH22\RightSecondary.calib
Date: 8/27/2019 12:26:20 PM
Format: 4
Probe Tube Correction File: C:\Data\Probe Tube Calibrations\50_ProbeTube.calib
Experiment VIs: 850
EPL_CFTS.exe V12.0.1 (2012)
DAQmx V9.6

Attenuation (dB): 40.000000
Min Freq (Hz): 50.000000
Max Freq (Hz): 49950.000000
Freq Step (Hz): 50.000000
Sample Rate (Hz): 100000.000000
[Smoothing]
Method=None
MA.Iterations=0
MA.Length=0
Loess.Length=0
Loess.Type=Linear
Loess.Robust=FALSE


Freq(Hz)	Mag(dB)	Phase(deg)	Unsmoothed(dB)

50.00000	107.00558	348.63947	107.00558
100.00000	84.22695	507.98406	84.22695
150.00000	71.75274	450.03919	71.75274
200.00000	79.24905	403.83738	79.24905
250.00000	88.58543	445.82919	88.58543
300.00000	89.90161	295.94101	89.90161
350.00000	81.27411	324.94030	81.27411
400.00000	84.93375	322.65864	84.93375
450.00000	86.62663	323.16018	86.62663
500.00000	88.01058	317.04423	88.01058
550.00000	88.52662	320.35605	88.52662
600.00000	90.21231	329.51439	90.21231
650.00000	92.45337	324.30334	92.45337
700.00000	96.09352	316.11270	96.09352
750.00000	97.63283	318.97664	97.63283
800.00000	100.02500	309.90744	100.02500
850.00000	102.50866	297.77963	102.50866
900.00000	104.23271	278.80365	104.23271
950.00000	105.49191	262.52624	105.49191
1000.00000	105.42915	245.01496	105.42915
1050.00000	104.93838	235.78726	104.93838
1100.00000	105.26572	223.90199	105.26572
1150.00000	104.39850	214.36303	104.39850
1200.00000	104.21952	211.48124	104.21952
1250.00000	104.20374	199.97375	104.20374
1300.00000	103.46640	194.50085	103.46640
1350.00000	102.48323	190.75843	102.48323
1400.00000	101.62521	192.05104	101.62521
1450.00000	101.85558	191.45164	101.85558
1500.00000	102.30381	191.04001	102.30381
1550.00000	102.24471	188.67914	102.24471
1600.00000	102.99387	186.44907	102.99387
1650.00000	103.88296	177.16931	103.88296
1700.00000	102.74162	174.08982	102.74162
1750.00000	102.46209	169.81894	102.46209
1800.00000	102.25732	167.42315	102.25732
1850.00000	102.09052	169.39086	102.09052
1900.00000	102.94283	173.60087	102.94283
1950.00000	103.77842	164.91176	103.77842
2000.00000	103.30840	152.93417	103.30840
2050.00000	102.71840	148.36292	102.71840
2100.00000	103.02423	147.53577	103.02423
2150.00000	102.49202	146.97573	102.49202
2200.00000	101.55227	144.40770	101.55227
2250.00000	100.63078	141.43621	100.63078
2300.00000	100.77488	141.63442	100.77488
2350.00000	100.75056	145.62047	100.75056
2400.00000	100.88431	148.77720	100.88431
2450.00000	100.73347	149.39268	100.73347
2500.00000	100.66679	151.02262	100.66679
2550.00000	101.23002	155.00771	101.23002
2600.00000	102.13802	159.28655	102.13802
2650.00000	103.66406	157.35422	103.66406
2700.00000	104.83489	147.93140	104.83489
2750.00000	105.24149	138.12886	105.24149
2800.00000	105.28072	131.14868	105.28072
2850.00000	104.88614	127.10165	104.88614
2900.00000	104.30606	122.88447	104.30606
2950.00000	104.00174	119.23572	104.00174
3000.00000	103.77687	115.56966	103.77687
3050.00000	103.42489	114.59250	103.42489
3100.00000	103.36198	112.62817	103.36198
3150.00000	102.78915	108.70935	102.78915
3200.00000	102.14845	105.71133	102.14845
3250.00000	101.51837	104.63036	101.51837
3300.00000	100.63757	106.31622	100.63757
3350.00000	99.41234	109.95322	99.41234
3400.00000	98.69707	119.07159	98.69707
3450.00000	99.27192	126.00240	99.27192
3500.00000	100.07441	130.69148	100.07441
3550.00000	100.22485	132.02874	100.22485
3600.00000	100.44765	131.99679	100.44765
3650.00000	100.45462	134.42034	100.45462
3700.00000	100.25386	145.69378	100.25386
3750.00000	100.91518	159.16234	100.91518
3800.00000	102.78436	166.97989	102.78436
3850.00000	104.87204	168.69682	104.87204
3900.00000	106.79829	167.82218	106.79829
3950.00000	108.47749	164.75947	108.47749
4000.00000	109.82558	160.16901	109.82558
4050.00000	110.85308	155.41888	110.85308
4100.00000	111.70559	151.05992	111.70559
4150.00000	112.67002	147.92984	112.67002
4200.00000	113.32782	144.58681	113.32782
4250.00000	114.19620	142.10722	114.19620
4300.00000	115.23280	139.69595	115.23280
4350.00000	116.35375	137.13639	116.35375
4400.00000	117.53674	134.11461	117.53674
4450.00000	118.83746	129.79386	118.83746
4500.00000	120.21580	124.43090	120.21580
4550.00000	121.61125	117.72245	121.61125
4600.00000	122.94137	109.42103	122.94137
4650.00000	124.28771	99.77619	124.28771
4700.00000	125.48206	88.03213	125.48206
4750.00000	126.42699	74.46933	126.42699
4800.00000	127.02120	59.35110	127.02120
4850.00000	127.13354	43.92257	127.13354
4900.00000	126.79429	29.11707	126.79429
4950.00000	126.04863	15.78276	126.04863
5000.00000	124.91735	 5.03847	124.91735
5050.00000	123.77823	-2.45679	123.77823
5100.00000	122.37836	-10.41695	122.37836
5150.00000	119.89396	-8.89430	119.89396
5200.00000	119.74697	11.86112	119.74697
5250.00000	123.07299	12.17246	123.07299
5300.00000	124.56560	-2.46717	124.56560
5350.00000	124.70466	-16.13751	124.70466
5400.00000	124.35241	-26.91915	124.35241
5450.00000	123.89741	-35.33658	123.89741
5500.00000	123.38272	-42.47386	123.38272
5550.00000	122.90035	-48.73051	122.90035
5600.00000	122.44759	-54.45433	122.44759
5650.00000	121.99432	-59.68819	121.99432
5700.00000	121.54261	-64.80822	121.54261
5750.00000	121.10209	-69.26527	121.10209
5800.00000	120.66846	-73.70822	120.66846
5850.00000	120.27066	-77.85029	120.27066
5900.00000	119.90049	-81.70466	119.90049
5950.00000	119.52925	-85.54528	119.52925
6000.00000	119.16287	-89.24815	119.16287
6050.00000	118.81072	-92.76708	118.81072
6100.00000	118.45475	-96.29011	118.45475
6150.00000	118.13128	-99.73905	118.13128
6200.00000	117.78836	-103.03346	117.78836
6250.00000	117.45423	-106.29599	117.45423
6300.00000	117.15324	-109.52105	117.15324
6350.00000	116.82817	-112.63052	116.82817
6400.00000	116.49154	-115.45053	116.49154
6450.00000	116.19633	-118.46450	116.19633
6500.00000	115.84362	-121.19521	115.84362
6550.00000	115.50246	-123.94493	115.50246
6600.00000	115.17783	-126.36814	115.17783
6650.00000	114.84966	-128.73075	114.84966
6700.00000	114.52988	-131.27897	114.52988
6750.00000	114.23098	-133.40743	114.23098
6800.00000	113.94635	-135.31714	113.94635
6850.00000	113.64870	-137.26245	113.64870
6900.00000	113.40735	-139.19737	113.40735
6950.00000	113.15366	-140.87189	113.15366
7000.00000	112.92120	-142.90093	112.92120
7050.00000	112.67767	-144.60039	112.67767
7100.00000	112.47798	-146.24888	112.47798
7150.00000	112.23461	-147.72216	112.23461
7200.00000	112.03702	-149.06064	112.03702
7250.00000	111.81999	-150.33915	111.81999
7300.00000	111.69509	-151.34070	111.69509
7350.00000	111.54033	-152.16862	111.54033
7400.00000	111.47093	-152.95931	111.47093
7450.00000	111.40850	-153.83900	111.40850
7500.00000	111.42078	-154.99818	111.42078
7550.00000	111.43807	-155.62446	111.43807
7600.00000	111.49420	-157.09492	111.49420
7650.00000	111.58380	-158.32604	111.58380
7700.00000	111.73125	-159.89229	111.73125
7750.00000	111.83261	-161.77086	111.83261
7800.00000	111.97298	-163.97892	111.97298
7850.00000	112.12432	-166.31223	112.12432
7900.00000	112.25029	-168.94009	112.25029
7950.00000	112.35937	-171.86996	112.35937
8000.00000	112.45735	-175.00924	112.45735
8050.00000	112.52634	-178.36123	112.52634
8100.00000	112.57713	-181.27242	112.57713
8150.00000	112.54282	-184.41187	112.54282
8200.00000	112.54537	-187.78546	112.54537
8250.00000	112.50781	-191.19358	112.50781
8300.00000	112.48023	-194.49079	112.48023
8350.00000	112.41651	-197.67789	112.41651
8400.00000	112.30620	-201.27049	112.30620
8450.00000	112.11098	-204.45982	112.11098
8500.00000	111.94787	-207.63568	111.94787
8550.00000	111.82562	-210.33937	111.82562
8600.00000	111.65533	-213.49759	111.65533
8650.00000	111.47112	-216.30760	111.47112
8700.00000	111.33004	-219.83359	111.33004
8750.00000	111.08996	-221.96266	111.08996
8800.00000	110.97105	-224.97853	110.97105
8850.00000	110.73299	-227.80586	110.73299
8900.00000	110.59251	-230.16132	110.59251
8950.00000	110.44475	-233.08046	110.44475
9000.00000	110.24214	-235.37686	110.24214
9050.00000	110.14250	-238.38557	110.14250
9100.00000	110.02696	-240.47084	110.02696
9150.00000	109.91999	-242.76137	109.91999
9200.00000	109.83701	-244.97661	109.83701
9250.00000	109.72595	-247.25785	109.72595
9300.00000	109.62818	-249.59219	109.62818
9350.00000	109.60307	-251.52466	109.60307
9400.00000	109.42590	-253.58156	109.42590
9450.00000	109.40464	-255.83013	109.40464
9500.00000	109.35538	-257.97222	109.35538
9550.00000	109.28224	-260.29396	109.28224
9600.00000	109.28495	-262.91055	109.28495
9650.00000	109.26262	-265.76918	109.26262
9700.00000	109.20071	-267.96775	109.20071
9750.00000	109.23018	-271.16947	109.23018
9800.00000	109.12916	-273.27394	109.12916
9850.00000	109.06098	-275.34931	109.06098
9900.00000	108.80492	-278.25930	108.80492
9950.00000	108.66795	-280.34515	108.66795
10000.00000	108.50764	-283.43589	108.50764
10050.00000	108.28658	-286.16734	108.28658
10100.00000	108.09257	-288.80920	108.09257
10150.00000	107.82960	-292.26382	107.82960
10200.00000	107.67060	-295.20973	107.67060
10250.00000	107.46970	-298.17033	107.46970
10300.00000	107.44750	-300.90513	107.44750
10350.00000	107.27441	-303.27415	107.27441
10400.00000	107.06118	-305.78379	107.06118
10450.00000	107.01239	-308.35073	107.01239
10500.00000	106.89019	-310.78263	106.89019
10550.00000	106.69880	-313.35618	106.69880
10600.00000	106.50732	-315.72659	106.50732
10650.00000	106.30744	-318.00703	106.30744
10700.00000	106.14162	-321.55941	106.14162
10750.00000	106.02685	-324.51010	106.02685
10800.00000	105.81822	-326.96936	105.81822
10850.00000	105.65427	-330.26232	105.65427
10900.00000	105.51073	-332.51965	105.51073
10950.00000	105.31090	-334.55840	105.31090
11000.00000	105.08333	-336.81950	105.08333
11050.00000	104.67020	-339.01544	104.67020
11100.00000	104.35962	-341.80048	104.35962
11150.00000	103.95549	-344.13107	103.95549
11200.00000	103.69522	-346.41428	103.69522
11250.00000	103.33763	-349.05983	103.33763
11300.00000	102.98041	-351.23542	102.98041
11350.00000	102.69175	-352.58780	102.69175
11400.00000	102.31349	-354.02162	102.31349
11450.00000	102.02907	-355.62817	102.02907
11500.00000	101.84685	-356.03926	101.84685
11550.00000	101.42322	-357.29387	101.42322
11600.00000	101.26038	-359.30455	101.26038
11650.00000	101.00180	-359.43764	101.00180
11700.00000	100.84761	-360.58322	100.84761
11750.00000	100.75133	-361.65087	100.75133
11800.00000	100.64493	-363.06117	100.64493
11850.00000	100.59945	-363.03401	100.59945
11900.00000	100.32904	-364.60900	100.32904
11950.00000	100.26600	-365.42951	100.26600
12000.00000	100.04829	-366.25202	100.04829
12050.00000	99.84264	-367.33955	99.84264
12100.00000	99.75962	-369.59732	99.75962
12150.00000	99.64871	-371.50622	99.64871
12200.00000	99.62098	-373.68240	99.62098
12250.00000	99.49090	-374.81828	99.49090
12300.00000	100.52026	-376.95121	100.52026
12350.00000	99.25392	-378.54463	99.25392
12400.00000	99.06747	-379.58406	99.06747
12450.00000	98.82613	-381.53258	98.82613
12500.00000	98.64338	-383.27789	98.64338
12550.00000	98.45233	-385.39705	98.45233
12600.00000	98.16639	-387.22401	98.16639
12650.00000	98.12337	-388.80929	98.12337
12700.00000	97.85307	-390.23043	97.85307
12750.00000	97.63035	-391.95209	97.63035
12800.00000	97.40412	-392.39912	97.40412
12850.00000	96.92315	-394.15288	96.92315
12900.00000	96.74901	-395.22368	96.74901
12950.00000	96.69848	-397.10776	96.69848
13000.00000	96.44407	-398.73526	96.44407
13050.00000	96.45354	-398.09570	96.45354
13100.00000	96.17670	-399.27572	96.17670
13150.00000	95.92047	-400.77007	95.92047
13200.00000	95.60105	-400.08396	95.60105
13250.00000	95.26097	-401.36944	95.26097
13300.00000	94.85553	-401.13420	94.85553
13350.00000	94.80947	-402.75417	94.80947
13400.00000	94.77605	-405.43984	94.77605
13450.00000	94.51808	-405.09214	94.51808
13500.00000	94.60138	-403.99062	94.60138
13550.00000	94.37071	-404.30300	94.37071
13600.00000	94.11395	-403.15246	94.11395
13650.00000	93.98649	-403.63375	93.98649
13700.00000	93.56088	-404.47120	93.56088
13750.00000	93.29493	-404.76026	93.29493
13800.00000	93.06318	-407.17982	93.06318
13850.00000	92.85383	-408.57828	92.85383
13900.00000	92.72351	-408.24741	92.72351
13950.00000	92.60906	-408.23687	92.60906
14000.00000	92.85487	-406.68539	92.85487
14050.00000	92.82729	-407.00841	92.82729
14100.00000	92.57007	-406.04367	92.57007
14150.00000	92.56400	-405.96231	92.56400
14200.00000	92.55993	-404.78507	92.55993
14250.00000	92.73710	-403.62119	92.73710
14300.00000	92.61925	-403.44621	92.61925
14350.00000	92.46201	-402.24805	92.46201
14400.00000	92.07559	-403.17266	92.07559
14450.00000	92.02309	-401.74235	92.02309
14500.00000	92.10646	-403.29358	92.10646
14550.00000	92.41662	-402.34741	92.41662
14600.00000	92.39131	-401.39793	92.39131
14650.00000	92.70734	-398.84971	92.70734
14700.00000	92.71140	-401.31786	92.71140
14750.00000	92.79253	-401.13810	92.79253
14800.00000	92.68681	-400.51737	92.68681
14850.00000	92.95273	-399.64279	92.95273
14900.00000	93.26103	-400.23465	93.26103
14950.00000	93.41994	-401.37281	93.41994
15000.00000	93.47214	-401.56191	93.47214
15050.00000	93.59030	-401.23816	93.59030
15100.00000	93.74621	-400.66889	93.74621
15150.00000	94.13191	-401.06061	94.13191
15200.00000	94.28330	-398.89318	94.28330
15250.00000	94.31023	-398.88066	94.31023
15300.00000	94.59454	-399.36700	94.59454
15350.00000	94.62583	-400.30760	94.62583
15400.00000	94.77209	-399.37946	94.77209
15450.00000	95.03142	-400.52723	95.03142
15500.00000	95.39186	-401.96409	95.39186
15550.00000	95.72211	-403.40882	95.72211
15600.00000	96.04628	-403.59479	96.04628
15650.00000	96.51525	-402.92455	96.51525
15700.00000	96.67544	-403.69548	96.67544
15750.00000	96.99463	-403.66070	96.99463
15800.00000	97.16449	-404.20142	97.16449
15850.00000	97.52055	-405.54512	97.52055
15900.00000	97.71794	-406.47552	97.71794
15950.00000	98.04459	-407.30537	98.04459
16000.00000	98.37884	-408.16159	98.37884
16050.00000	98.62728	-409.64388	98.62728
16100.00000	98.80691	-411.44494	98.80691
16150.00000	99.15945	-413.01131	99.15945
16200.00000	99.54265	-414.98130	99.54265
16250.00000	99.90181	-415.40197	99.90181
16300.00000	100.30756	-416.80195	100.30756
16350.00000	100.49974	-418.17712	100.49974
16400.00000	100.81563	-419.99357	100.81563
16450.00000	101.16933	-421.82114	101.16933
16500.00000	101.44560	-423.65349	101.44560
16550.00000	101.79799	-426.36318	101.79799
16600.00000	102.14043	-428.68034	102.14043
16650.00000	102.39107	-430.54066	102.39107
16700.00000	102.66334	-432.60132	102.66334
16750.00000	102.81991	-435.22781	102.81991
16800.00000	103.11940	-437.96057	103.11940
16850.00000	103.45028	-440.20562	103.45028
16900.00000	103.71887	-442.75042	103.71887
16950.00000	103.90290	-444.86983	103.90290
17000.00000	103.94521	-447.47882	103.94521
17050.00000	104.15154	-449.71451	104.15154
17100.00000	104.31668	-451.30369	104.31668
17150.00000	104.67183	-454.54589	104.67183
17200.00000	104.89875	-456.30128	104.89875
17250.00000	104.98109	-459.08214	104.98109
17300.00000	105.17420	-461.48381	105.17420
17350.00000	105.23764	-463.60264	105.23764
17400.00000	105.54657	-466.08542	105.54657
17450.00000	105.66457	-468.61656	105.66457
17500.00000	105.89205	-470.66799	105.89205
17550.00000	106.03911	-473.13684	106.03911
17600.00000	106.31885	-475.26885	106.31885
17650.00000	106.48094	-478.58386	106.48094
17700.00000	106.63985	-481.23299	106.63985
17750.00000	106.96875	-483.01246	106.96875
17800.00000	107.03102	-486.03577	107.03102
17850.00000	107.22096	-488.19718	107.22096
17900.00000	107.35882	-491.06727	107.35882
17950.00000	107.62070	-493.98197	107.62070
18000.00000	107.76968	-497.55780	107.76968
18050.00000	108.06557	-499.70315	108.06557
18100.00000	108.16695	-503.19234	108.16695
18150.00000	108.29396	-505.41124	108.29396
18200.00000	108.34415	-508.87732	108.34415
18250.00000	108.53438	-511.14301	108.53438
18300.00000	108.74034	-514.19162	108.74034
18350.00000	108.86907	-516.83849	108.86907
18400.00000	108.88976	-519.89621	108.88976
18450.00000	108.96680	-523.95180	108.96680
18500.00000	109.11026	-526.69971	109.11026
18550.00000	109.23528	-528.92169	109.23528
18600.00000	109.44710	-532.08064	109.44710
18650.00000	109.42253	-534.60262	109.42253
18700.00000	109.54564	-537.99853	109.54564
18750.00000	109.72298	-540.96930	109.72298
18800.00000	109.98866	-543.33486	109.98866
18850.00000	109.99957	-546.58193	109.99957
18900.00000	110.10603	-549.56236	110.10603
18950.00000	110.26043	-553.39158	110.26043
19000.00000	110.24134	-556.20551	110.24134
19050.00000	110.50689	-559.70466	110.50689
19100.00000	110.56142	-562.90874	110.56142
19150.00000	110.77766	-566.17997	110.77766
19200.00000	110.84021	-569.33389	110.84021
19250.00000	110.89648	-573.99253	110.89648
19300.00000	110.91321	-576.94181	110.91321
19350.00000	110.98858	-580.62358	110.98858
19400.00000	110.98068	-584.10428	110.98068
19450.00000	111.10199	-587.23666	111.10199
19500.00000	111.02991	-591.76207	111.02991
19550.00000	111.07050	-595.39629	111.07050
19600.00000	111.14232	-599.61963	111.14232
19650.00000	111.05009	-602.69941	111.05009
19700.00000	110.91988	-606.53208	110.91988
19750.00000	110.84495	-609.63001	110.84495
19800.00000	110.88959	-614.15378	110.88959
19850.00000	110.84420	-617.31323	110.84420
19900.00000	110.70008	-621.54508	110.70008
19950.00000	110.57685	-624.96778	110.57685
20000.00000	110.47092	-628.53321	110.47092
20050.00000	110.37621	-631.97304	110.37621
20100.00000	110.17018	-635.39292	110.17018
20150.00000	110.09116	-637.75513	110.09116
20200.00000	109.89751	-641.75836	109.89751
20250.00000	109.67926	-644.85961	109.67926
20300.00000	109.44958	-648.09323	109.44958
20350.00000	109.34964	-651.22173	109.34964
20400.00000	109.10442	-653.32484	109.10442
20450.00000	108.81325	-656.24918	108.81325
20500.00000	108.66457	-659.39491	108.66457
20550.00000	108.24185	-661.23791	108.24185
20600.00000	108.11305	-663.36446	108.11305
20650.00000	107.87805	-665.57119	107.87805
20700.00000	107.58251	-667.62298	107.58251
20750.00000	107.42037	-669.38452	107.42037
20800.00000	107.15474	-670.75184	107.15474
20850.00000	107.01695	-672.32528	107.01695
20900.00000	106.75928	-673.57843	106.75928
20950.00000	106.56297	-674.18617	106.56297
21000.00000	106.40934	-675.07471	106.40934
21050.00000	106.44134	-675.67449	106.44134
21100.00000	106.33539	-676.09314	106.33539
21150.00000	106.35409	-677.01880	106.35409
21200.00000	106.37764	-677.53448	106.37764
21250.00000	106.41694	-679.57684	106.41694
21300.00000	106.54852	-680.04293	106.54852
21350.00000	106.58086	-681.07094	106.58086
21400.00000	106.63539	-682.79954	106.63539
21450.00000	106.73832	-684.44908	106.73832
21500.00000	106.84394	-686.43703	106.84394
21550.00000	106.83449	-687.81504	106.83449
21600.00000	106.98813	-689.82371	106.98813
21650.00000	107.01389	-691.91885	107.01389
21700.00000	107.08925	-693.75516	107.08925
21750.00000	107.15314	-695.69607	107.15314
21800.00000	107.22519	-697.81601	107.22519
21850.00000	107.19791	-699.70838	107.19791
21900.00000	107.26141	-701.99884	107.26141
21950.00000	107.28150	-703.88026	107.28150
22000.00000	107.38842	-705.97531	107.38842
22050.00000	107.36800	-707.50457	107.36800
22100.00000	107.35076	-709.80245	107.35076
22150.00000	107.35650	-711.82811	107.35650
22200.00000	107.45646	-713.85326	107.45646
22250.00000	107.41285	-715.26539	107.41285
22300.00000	107.32198	-717.45218	107.32198
22350.00000	107.43613	-719.47621	107.43613
22400.00000	107.44704	-721.58792	107.44704
22450.00000	107.41408	-723.23935	107.41408
22500.00000	107.39870	-723.94421	107.39870
22550.00000	107.38121	-725.88427	107.38121
22600.00000	107.35322	-728.78010	107.35322
22650.00000	107.41341	-730.53293	107.41341
22700.00000	107.43154	-731.58881	107.43154
