---ACOUSTIC CALIBRATION---
Filename: C:\Data\AZH DATA\AZH22\RightPrimary.calib
Date: 8/27/2019 12:26:12 PM
Format: 4
Probe Tube Correction File: C:\Data\Probe Tube Calibrations\50_ProbeTube.calib
Experiment VIs: 850
EPL_CFTS.exe V12.0.1 (2012)
DAQmx V9.6

Attenuation (dB): 40.000000
Min Freq (Hz): 50.000000
Max Freq (Hz): 49950.000000
Freq Step (Hz): 50.000000
Sample Rate (Hz): 100000.000000
[Smoothing]
Method=None
MA.Iterations=0
MA.Length=0
Loess.Length=0
Loess.Type=Linear
Loess.Robust=FALSE


Freq(Hz)	Mag(dB)	Phase(deg)	Unsmoothed(dB)

50.00000	104.80118	311.01451	104.80118
100.00000	68.05467	252.98538	68.05467
150.00000	76.15878	418.87869	76.15878
200.00000	81.77175	432.39349	81.77175
250.00000	87.98944	440.38325	87.98944
300.00000	86.53490	396.75183	86.53490
350.00000	84.01655	388.77218	84.01655
400.00000	82.52712	383.93171	82.52712
450.00000	85.02781	364.71881	85.02781
500.00000	90.51759	372.27971	90.51759
550.00000	94.56783	370.45630	94.56783
600.00000	93.91815	364.76383	93.91815
650.00000	97.11820	354.58866	97.11820
700.00000	99.38393	336.27284	99.38393
750.00000	100.98788	320.63995	100.98788
800.00000	101.54730	292.40463	101.54730
850.00000	100.70016	277.92676	100.70016
900.00000	99.34614	260.54411	99.34614
950.00000	97.41346	259.28197	97.41346
1000.00000	95.98752	260.72231	95.98752
1050.00000	93.77873	278.19816	93.77873
1100.00000	96.11706	298.17339	96.11706
1150.00000	99.09418	302.95469	99.09418
1200.00000	101.91242	300.11793	101.91242
1250.00000	103.35325	291.35830	103.35325
1300.00000	105.14810	286.32732	105.14810
1350.00000	106.24861	276.84678	106.24861
1400.00000	107.18541	270.54833	107.18541
1450.00000	108.23349	262.99009	108.23349
1500.00000	109.43581	256.59611	109.43581
1550.00000	110.14134	247.13685	110.14134
1600.00000	111.48482	237.54994	111.48482
1650.00000	112.44266	220.55479	112.44266
1700.00000	111.10200	210.55188	111.10200
1750.00000	110.90801	205.17762	110.90801
1800.00000	110.49927	200.55606	110.49927
1850.00000	110.76977	200.69645	110.76977
1900.00000	111.95205	195.99455	111.95205
1950.00000	112.58243	182.13674	112.58243
2000.00000	111.58715	170.38851	111.58715
2050.00000	110.39065	176.28702	110.39065
2100.00000	112.26160	174.44902	112.26160
2150.00000	112.81382	163.12337	112.81382
2200.00000	112.72694	153.17935	112.72694
2250.00000	112.06516	146.16884	112.06516
2300.00000	112.20922	140.88127	112.20922
2350.00000	111.85846	134.40269	111.85846
2400.00000	111.61320	128.84637	111.61320
2450.00000	111.33259	122.44456	111.33259
2500.00000	110.85858	117.69532	110.85858
2550.00000	110.42705	111.92489	110.42705
2600.00000	109.80045	107.92888	109.80045
2650.00000	109.27900	103.93241	109.27900
2700.00000	108.75489	100.35155	108.75489
2750.00000	108.11627	97.23528	108.11627
2800.00000	107.30553	94.50231	107.30553
2850.00000	106.62017	93.21389	106.62017
2900.00000	105.83520	91.67729	105.83520
2950.00000	104.96166	91.81542	104.96166
3000.00000	104.09148	92.68737	104.09148
3050.00000	102.88320	96.34967	102.88320
3100.00000	101.99222	101.98129	101.99222
3150.00000	101.08580	110.29134	101.08580
3200.00000	100.81254	125.29130	100.81254
3250.00000	101.61481	138.01426	101.61481
3300.00000	103.21369	148.48260	103.21369
3350.00000	104.98678	157.12391	104.98678
3400.00000	107.09140	161.07044	107.09140
3450.00000	109.45255	160.74495	109.45255
3500.00000	111.51778	156.93118	111.51778
3550.00000	113.10991	150.43078	113.10991
3600.00000	114.61731	144.72117	114.61731
3650.00000	115.81665	137.55482	115.81665
3700.00000	116.91523	130.34039	116.91523
3750.00000	117.96827	122.65669	117.96827
3800.00000	118.78163	114.19802	118.78163
3850.00000	119.41448	106.20782	119.41448
3900.00000	119.96560	99.08383	119.96560
3950.00000	120.58168	91.85317	120.58168
4000.00000	121.15256	84.51831	121.15256
4050.00000	121.71668	77.18325	121.71668
4100.00000	122.32201	69.34059	122.32201
4150.00000	123.05660	60.76056	123.05660
4200.00000	123.43925	50.72458	123.43925
4250.00000	123.76993	40.29564	123.76993
4300.00000	123.87766	29.62857	123.87766
4350.00000	123.77266	19.00769	123.77266
4400.00000	123.50858	 9.46054	123.50858
4450.00000	123.15813	 0.51413	123.15813
4500.00000	122.77859	-7.62838	122.77859
4550.00000	122.38936	-15.45985	122.38936
4600.00000	121.97082	-23.06659	121.97082
4650.00000	121.58039	-30.44410	121.58039
4700.00000	121.10585	-38.36415	121.10585
4750.00000	120.47457	-46.51071	120.47457
4800.00000	119.62849	-54.37474	119.62849
4850.00000	118.51503	-61.08001	118.51503
4900.00000	117.29179	-65.65074	117.29179
4950.00000	116.06335	-67.78215	116.06335
5000.00000	115.00378	-68.13646	115.00378
5050.00000	114.09861	-67.90565	114.09861
5100.00000	113.12466	-64.16383	113.12466
5150.00000	113.29513	-59.94909	113.29513
5200.00000	113.11281	-55.10355	113.11281
5250.00000	114.84037	-53.93557	114.84037
5300.00000	115.39617	-64.87950	115.39617
5350.00000	114.86186	-71.94912	114.86186
5400.00000	114.33970	-75.62865	114.33970
5450.00000	113.93397	-78.03179	113.93397
5500.00000	113.60427	-80.20549	113.60427
5550.00000	113.36476	-82.07360	113.36476
5600.00000	113.15839	-84.02371	113.15839
5650.00000	112.98939	-85.77195	112.98939
5700.00000	112.82350	-87.71641	112.82350
5750.00000	112.71145	-89.47846	112.71145
5800.00000	112.60437	-91.27956	112.60437
5850.00000	112.53383	-93.18833	112.53383
5900.00000	112.54053	-95.10317	112.54053
5950.00000	112.54838	-97.17119	112.54838
6000.00000	112.55362	-99.71536	112.55362
6050.00000	112.54145	-102.42980	112.54145
6100.00000	112.49487	-105.33188	112.49487
6150.00000	112.43818	-108.20710	112.43818
6200.00000	112.32457	-111.00342	112.32457
6250.00000	112.24779	-113.70490	112.24779
6300.00000	112.15805	-116.25610	112.15805
6350.00000	112.04960	-119.03956	112.04960
6400.00000	111.95264	-121.46346	111.95264
6450.00000	111.86452	-123.98687	111.86452
6500.00000	111.76886	-126.56564	111.76886
6550.00000	111.68253	-128.95319	111.68253
6600.00000	111.59225	-131.45355	111.59225
6650.00000	111.52957	-133.75187	111.52957
6700.00000	111.49408	-136.26730	111.49408
6750.00000	111.42764	-138.63546	111.42764
6800.00000	111.38346	-141.09637	111.38346
6850.00000	111.34535	-143.68787	111.34535
6900.00000	111.31362	-146.23408	111.31362
6950.00000	111.26416	-148.64139	111.26416
7000.00000	111.24819	-151.20492	111.24819
7050.00000	111.21435	-153.88588	111.21435
7100.00000	111.18364	-156.66238	111.18364
7150.00000	111.14698	-159.30611	111.14698
7200.00000	111.11290	-162.15829	111.11290
7250.00000	111.05381	-165.08020	111.05381
7300.00000	111.04935	-167.88890	111.04935
7350.00000	110.97504	-170.67419	110.97504
7400.00000	110.95916	-173.69501	110.95916
7450.00000	110.88348	-176.69185	110.88348
7500.00000	110.82897	-179.83600	110.82897
7550.00000	110.78710	-182.90438	110.78710
7600.00000	110.68259	-185.99883	110.68259
7650.00000	110.60666	-188.96280	110.60666
7700.00000	110.56206	-192.03225	110.56206
7750.00000	110.42961	-195.20233	110.42961
7800.00000	110.32604	-198.21094	110.32604
7850.00000	110.19416	-201.34053	110.19416
7900.00000	110.10820	-204.08893	110.10820
7950.00000	109.98605	-207.23267	109.98605
8000.00000	109.89187	-210.27002	109.89187
8050.00000	109.76370	-213.55360	109.76370
8100.00000	109.65998	-216.18107	109.65998
8150.00000	109.48503	-219.20958	109.48503
8200.00000	109.35613	-221.87843	109.35613
8250.00000	109.19168	-224.91468	109.19168
8300.00000	109.04252	-227.65083	109.04252
8350.00000	108.87408	-230.40741	108.87408
8400.00000	108.65251	-233.56695	108.65251
8450.00000	108.40375	-236.44187	108.40375
8500.00000	108.16376	-239.39165	108.16376
8550.00000	107.99583	-242.02732	107.99583
8600.00000	107.78855	-245.09631	107.78855
8650.00000	107.51583	-247.94742	107.51583
8700.00000	107.35138	-251.33047	107.35138
8750.00000	107.10097	-253.08566	107.10097
8800.00000	106.93436	-256.08138	106.93436
8850.00000	106.69907	-258.59328	106.69907
8900.00000	106.52063	-260.81814	106.52063
8950.00000	106.28258	-263.46619	106.28258
9000.00000	105.99495	-265.71480	105.99495
9050.00000	105.79743	-268.16360	105.79743
9100.00000	105.55053	-270.15666	105.55053
9150.00000	105.29707	-272.35560	105.29707
9200.00000	105.14801	-274.94505	105.14801
9250.00000	104.90284	-277.30499	104.90284
9300.00000	104.76787	-279.55763	104.76787
9350.00000	104.66556	-281.67307	104.66556
9400.00000	104.43569	-283.25195	104.43569
9450.00000	104.34476	-284.82657	104.34476
9500.00000	104.27474	-285.54978	104.27474
9550.00000	104.31669	-286.77755	104.31669
9600.00000	104.31978	-288.95594	104.31978
9650.00000	104.18246	-291.04666	104.18246
9700.00000	103.98437	-292.64305	103.98437
9750.00000	103.89025	-295.26412	103.89025
9800.00000	103.68857	-297.08187	103.68857
9850.00000	103.56651	-299.22580	103.56651
9900.00000	103.30155	-301.79117	103.30155
9950.00000	103.17702	-303.57393	103.17702
10000.00000	103.06674	-306.26289	103.06674
10050.00000	102.93938	-308.24328	102.93938
10100.00000	102.75919	-310.06842	102.75919
10150.00000	102.54650	-312.58002	102.54650
10200.00000	102.38279	-314.55734	102.38279
10250.00000	102.15394	-316.85908	102.15394
10300.00000	102.03416	-319.10294	102.03416
10350.00000	101.83497	-321.32510	101.83497
10400.00000	101.59719	-323.99977	101.59719
10450.00000	101.54374	-326.86489	101.54374
10500.00000	101.46495	-329.42449	101.46495
10550.00000	101.38018	-331.89319	101.38018
10600.00000	101.26459	-333.97597	101.26459
10650.00000	101.12641	-335.76020	101.12641
10700.00000	101.01139	-338.62163	101.01139
10750.00000	100.89312	-340.68668	100.89312
10800.00000	100.63658	-342.60800	100.63658
10850.00000	100.41676	-345.64626	100.41676
10900.00000	100.21123	-347.84455	100.21123
10950.00000	100.01795	-349.91537	100.01795
11000.00000	99.80291	-352.23333	99.80291
11050.00000	99.45386	-354.40654	99.45386
11100.00000	99.22564	-357.03512	99.22564
11150.00000	98.87594	-358.77555	98.87594
11200.00000	98.66954	-360.57447	98.66954
11250.00000	98.31166	-362.57974	98.31166
11300.00000	97.94774	-364.62456	97.94774
11350.00000	97.62656	-365.97014	97.62656
11400.00000	97.22422	-367.54594	97.22422
11450.00000	96.95035	-369.37592	96.95035
11500.00000	96.79874	-370.13279	96.79874
11550.00000	96.41893	-371.07907	96.41893
11600.00000	96.27783	-372.68663	96.27783
11650.00000	96.02773	-372.35876	96.02773
11700.00000	95.88723	-373.00534	95.88723
11750.00000	95.73071	-373.98518	95.73071
11800.00000	95.58520	-374.78109	95.58520
11850.00000	95.46886	-374.39281	95.46886
11900.00000	95.20759	-375.82176	95.20759
11950.00000	95.12169	-376.29250	95.12169
12000.00000	94.97926	-376.73076	94.97926
12050.00000	94.80906	-376.95790	94.80906
12100.00000	94.76326	-378.91645	94.76326
12150.00000	94.73547	-379.79621	94.73547
12200.00000	94.73423	-381.21537	94.73423
12250.00000	94.70861	-381.88752	94.70861
12300.00000	95.80383	-383.13962	95.80383
12350.00000	94.66876	-384.77247	94.66876
12400.00000	94.67701	-385.38158	94.67701
12450.00000	94.60581	-386.91724	94.60581
12500.00000	94.60423	-389.50137	94.60423
12550.00000	94.55310	-390.82068	94.55310
12600.00000	94.45917	-393.11688	94.45917
12650.00000	94.47383	-395.02679	94.47383
12700.00000	94.27856	-396.90713	94.27856
12750.00000	94.17077	-399.58846	94.17077
12800.00000	94.04145	-401.35484	94.04145
12850.00000	93.59408	-403.41843	93.59408
12900.00000	93.47356	-405.76462	93.47356
12950.00000	93.41808	-407.99443	93.41808
13000.00000	93.12811	-410.26636	93.12811
13050.00000	92.94817	-411.24016	92.94817
13100.00000	92.64313	-413.53948	92.64313
13150.00000	92.35010	-415.76731	92.35010
13200.00000	92.16989	-416.13876	92.16989
13250.00000	91.83920	-417.26551	91.83920
13300.00000	91.52708	-416.96778	91.52708
13350.00000	91.23493	-418.13218	91.23493
13400.00000	91.06213	-419.66491	91.06213
13450.00000	90.69691	-418.96043	90.69691
13500.00000	90.57365	-419.17850	90.57365
13550.00000	90.22469	-419.18450	90.22469
13600.00000	90.03153	-419.31909	90.03153
13650.00000	89.84321	-419.77859	89.84321
13700.00000	89.44965	-419.88868	89.44965
13750.00000	89.18295	-420.17849	89.18295
13800.00000	88.86892	-422.83461	88.86892
13850.00000	88.83061	-423.80021	88.83061
13900.00000	88.58488	-422.26154	88.58488
13950.00000	88.41485	-421.51254	88.41485
14000.00000	88.51577	-420.64148	88.51577
14050.00000	88.39062	-420.26013	88.39062
14100.00000	88.09541	-420.18196	88.09541
14150.00000	87.95921	-420.32612	87.95921
14200.00000	88.12876	-419.99061	88.12876
14250.00000	88.38853	-417.48553	88.38853
14300.00000	88.17163	-418.02833	88.17163
14350.00000	88.02509	-415.33741	88.02509
14400.00000	87.62239	-415.66411	87.62239
14450.00000	87.50833	-412.64500	87.50833
14500.00000	87.35408	-414.15575	87.35408
14550.00000	87.67910	-412.24758	87.67910
14600.00000	87.57882	-412.73572	87.57882
14650.00000	87.71973	-410.19736	87.71973
14700.00000	87.79061	-412.99772	87.79061
14750.00000	87.88247	-410.67717	87.88247
14800.00000	87.86357	-409.49573	87.86357
14850.00000	88.20962	-408.55845	88.20962
14900.00000	88.63817	-408.18779	88.63817
14950.00000	88.72471	-406.77695	88.72471
15000.00000	88.93868	-406.96548	88.93868
15050.00000	89.18764	-405.62066	89.18764
15100.00000	89.33595	-404.34930	89.33595
15150.00000	89.57887	-405.24348	89.57887
15200.00000	89.83957	-403.99544	89.83957
15250.00000	90.03492	-404.15659	90.03492
15300.00000	90.51116	-404.66441	90.51116
15350.00000	90.78962	-405.63333	90.78962
15400.00000	90.95067	-404.35391	90.95067
15450.00000	91.13449	-404.91465	91.13449
15500.00000	91.59923	-406.09019	91.59923
15550.00000	91.94355	-407.07675	91.94355
15600.00000	92.20519	-407.19001	92.20519
15650.00000	92.66489	-406.59769	92.66489
15700.00000	92.89781	-408.61665	92.89781
15750.00000	93.24942	-408.14256	93.24942
15800.00000	93.55660	-409.06856	93.55660
15850.00000	93.96428	-410.09167	93.96428
15900.00000	94.24325	-411.62629	94.24325
15950.00000	94.61802	-412.88734	94.61802
16000.00000	94.99876	-414.09557	94.99876
16050.00000	95.41388	-415.00942	95.41388
16100.00000	95.57637	-416.54554	95.57637
16150.00000	95.91421	-419.17672	95.91421
16200.00000	96.30528	-421.31850	96.30528
16250.00000	96.65874	-423.09048	96.65874
16300.00000	97.24470	-424.80102	97.24470
16350.00000	97.51572	-426.19672	97.51572
16400.00000	97.76877	-427.82857	97.76877
16450.00000	98.10433	-430.50438	98.10433
16500.00000	98.47237	-432.82577	98.47237
16550.00000	98.85141	-436.34580	98.85141
16600.00000	99.20587	-438.57560	99.20587
16650.00000	99.45641	-440.68911	99.45641
16700.00000	99.68238	-443.70104	99.68238
16750.00000	99.83982	-446.74144	99.83982
16800.00000	100.13908	-449.90788	100.13908
16850.00000	100.43470	-453.19633	100.43470
16900.00000	100.71780	-456.22313	100.71780
16950.00000	100.85674	-458.99136	100.85674
17000.00000	100.91843	-462.06162	100.91843
17050.00000	101.09791	-464.08008	101.09791
17100.00000	101.13392	-466.17395	101.13392
17150.00000	101.43141	-470.06898	101.43141
17200.00000	101.57434	-472.48023	101.57434
17250.00000	101.65598	-475.77274	101.65598
17300.00000	101.88255	-478.51166	101.88255
17350.00000	101.84751	-480.68550	101.84751
17400.00000	102.01807	-483.52616	102.01807
17450.00000	102.11100	-486.73988	102.11100
17500.00000	102.26854	-489.07909	102.26854
17550.00000	102.41325	-491.48410	102.41325
17600.00000	102.60232	-493.71709	102.60232
17650.00000	102.68974	-497.18460	102.68974
17700.00000	102.79685	-500.03673	102.79685
17750.00000	103.05921	-502.34502	103.05921
17800.00000	103.06520	-505.55427	103.06520
17850.00000	103.23967	-508.05342	103.23967
17900.00000	103.31738	-510.80394	103.31738
17950.00000	103.49670	-514.08189	103.49670
18000.00000	103.60746	-517.91266	103.60746
18050.00000	103.83240	-520.05602	103.83240
18100.00000	103.81544	-524.00372	103.81544
18150.00000	103.90451	-526.33608	103.90451
18200.00000	103.92296	-529.75087	103.92296
18250.00000	104.02901	-532.06179	104.02901
18300.00000	104.15983	-535.21190	104.15983
18350.00000	104.18136	-537.89605	104.18136
18400.00000	104.17872	-541.11590	104.17872
18450.00000	104.17491	-544.99479	104.17491
18500.00000	104.27145	-547.81454	104.27145
18550.00000	104.26383	-549.94816	104.26383
18600.00000	104.40973	-553.17764	104.40973
18650.00000	104.31472	-555.85073	104.31472
18700.00000	104.39471	-559.00226	104.39471
18750.00000	104.46566	-561.69388	104.46566
18800.00000	104.64863	-563.94591	104.64863
18850.00000	104.54336	-567.05136	104.54336
18900.00000	104.60261	-569.87529	104.60261
18950.00000	104.66644	-573.11440	104.66644
19000.00000	104.56008	-575.52807	104.56008
19050.00000	104.76563	-578.68535	104.76563
19100.00000	104.74718	-581.30468	104.74718
19150.00000	104.91819	-584.19075	104.91819
19200.00000	104.94256	-586.65393	104.94256
19250.00000	104.93050	-590.67133	104.93050
19300.00000	104.93089	-593.25943	104.93089
19350.00000	104.98354	-596.22011	104.98354
19400.00000	104.97453	-599.14337	104.97453
19450.00000	105.09946	-601.58923	105.09946
19500.00000	105.00843	-605.52926	105.00843
19550.00000	105.04395	-608.55999	105.04395
19600.00000	105.13911	-611.97891	105.13911
19650.00000	105.06737	-614.64929	105.06737
19700.00000	104.96463	-617.85105	104.96463
19750.00000	104.93271	-620.62201	104.93271
19800.00000	104.99968	-624.49741	104.99968
19850.00000	104.98344	-627.12253	104.98344
19900.00000	104.89807	-631.03328	104.89807
19950.00000	104.81993	-633.94448	104.81993
20000.00000	104.78415	-637.14060	104.78415
20050.00000	104.72383	-640.19066	104.72383
20100.00000	104.55977	-643.21467	104.55977
20150.00000	104.55523	-645.52473	104.55523
20200.00000	104.43658	-649.21864	104.43658
20250.00000	104.26371	-652.03386	104.26371
20300.00000	104.09785	-654.87629	104.09785
20350.00000	104.04938	-657.93833	104.04938
20400.00000	103.87448	-659.99276	103.87448
20450.00000	103.64271	-662.76632	103.64271
20500.00000	103.54578	-665.71757	103.54578
20550.00000	103.17347	-667.52752	103.17347
20600.00000	103.08320	-669.64845	103.08320
20650.00000	102.92544	-672.02574	102.92544
20700.00000	102.69199	-673.88324	102.69199
20750.00000	102.57035	-675.76626	102.57035
20800.00000	102.34038	-677.17394	102.34038
20850.00000	102.23439	-678.90669	102.23439
20900.00000	102.02509	-680.27004	102.02509
20950.00000	101.86832	-681.02978	101.86832
21000.00000	101.76433	-682.05101	101.76433
21050.00000	101.79800	-682.72057	101.79800
21100.00000	101.72788	-683.43850	101.72788
21150.00000	101.77145	-684.49637	101.77145
21200.00000	101.82216	-685.21021	101.82216
21250.00000	101.86578	-687.39220	101.86578
21300.00000	101.97958	-688.24543	101.97958
21350.00000	102.05830	-689.42898	102.05830
21400.00000	102.09509	-691.47970	102.09509
21450.00000	102.21685	-693.24923	102.21685
21500.00000	102.28591	-695.51217	102.28591
21550.00000	102.27746	-697.33847	102.27746
21600.00000	102.39611	-699.53275	102.39611
21650.00000	102.41398	-701.91428	102.41398
21700.00000	102.41653	-703.83174	102.41653
21750.00000	102.43912	-706.24855	102.43912
21800.00000	102.49135	-708.48738	102.49135
21850.00000	102.37196	-710.63078	102.37196
21900.00000	102.40839	-712.74054	102.40839
21950.00000	102.37190	-714.64741	102.37190
22000.00000	102.41943	-716.90847	102.41943
22050.00000	102.33812	-718.39204	102.33812
22100.00000	102.32069	-720.58689	102.32069
22150.00000	102.27500	-722.22721	102.27500
22200.00000	102.33906	-724.46135	102.33906
22250.00000	102.29051	-725.75105	102.29051
22300.00000	102.15370	-727.85395	102.15370
22350.00000	102.25650	-729.63927	102.25650
22400.00000	102.25035	-731.81787	102.25035
22450.00000	102.23184	-733.55635	102.23184
22500.00000	102.13710	-734.31990	102.13710
22550.00000	102.16813	-736.63862	102.16813
22600.00000	102.13611	-739.24079	102.13611
22650.00000	102.19024	-741.51324	102.19024
22700.00000	102.14461	-742.60692	102.14461
22750.00000	102.09497	-743.19073	102.09497
