---ACOUSTIC CALIBRATION---
Filename: C:\Data\CL0809 DATA\CL08095\RightSecondary.calib
Date: 8/9/2019 4:10:59 PM
Format: 4
Probe Tube Correction File: C:\Data\Probe Tube Calibrations\74_ProbeTube.calib
Experiment VIs: 2128
EPL_CFTS.exe V15.0.1f5 (2015)
DAQmx V15.1

Attenuation (dB): 40.000000
Min Freq (Hz): 50.000000
Max Freq (Hz): 99950.000000
Freq Step (Hz): 50.000000
Sample Rate (Hz): 200000.000000
[Smoothing]
Method=None
MA.Iterations=0
MA.Length=0
Loess.Length=0
Loess.Type=Linear
Loess.Robust=FALSE


Freq(Hz)	Mag(dB)	Phase(deg)	Unsmoothed(dB)

50.00000	84.53340	258.52459	84.53340
100.00000	70.57691	344.53543	70.57691
150.00000	75.64878	355.87082	75.64878
200.00000	69.76356	476.11812	69.76356
250.00000	58.60079	587.41444	58.60079
300.00000	66.95525	831.92347	66.95525
350.00000	68.33894	990.44708	68.33894
400.00000	65.60381	1062.43216	65.60381
450.00000	70.86436	1107.73223	70.86436
500.00000	76.40996	1216.03524	76.40996
550.00000	80.68127	1153.17689	80.68127
600.00000	81.12522	1118.36154	81.12522
650.00000	86.73667	1103.28159	86.73667
700.00000	85.79607	1101.21875	85.79607
750.00000	90.79722	1064.83674	90.79722
800.00000	91.64898	1045.71417	91.64898
850.00000	90.45502	1035.73320	90.45502
900.00000	91.17850	1029.40111	91.17850
950.00000	92.37851	1012.50177	92.37851
1000.00000	91.95703	1004.89996	91.95703
1050.00000	91.96524	990.76740	91.96524
1100.00000	90.88990	979.96236	90.88990
1150.00000	89.51002	983.19066	89.51002
1200.00000	90.09402	989.65963	90.09402
1250.00000	90.83395	988.87294	90.83395
1300.00000	91.83553	993.17087	91.83553
1350.00000	93.13949	986.98275	93.13949
1400.00000	93.32478	988.43271	93.32478
1450.00000	95.15972	988.86976	95.15972
1500.00000	96.41891	982.98433	96.41891
1550.00000	97.56940	978.83668	97.56940
1600.00000	99.12427	973.15903	99.12427
1650.00000	99.98611	967.60709	99.98611
1700.00000	104.04047	952.23131	104.04047
1750.00000	101.17777	930.79974	101.17777
1800.00000	100.69764	925.27171	100.69764
1850.00000	100.38873	918.03535	100.38873
1900.00000	100.16556	911.00573	100.16556
1950.00000	99.37085	905.53970	99.37085
2000.00000	98.61200	901.73219	98.61200
2050.00000	97.72063	903.09167	97.72063
2100.00000	98.52946	908.59882	98.52946
2150.00000	99.59760	902.85143	99.59760
2200.00000	99.81138	894.03746	99.81138
2250.00000	99.29659	887.84968	99.29659
2300.00000	98.87175	886.62882	98.87175
2350.00000	98.94955	884.28140	98.94955
2400.00000	99.02412	881.02487	99.02412
2450.00000	98.53275	877.46192	98.53275
2500.00000	98.18412	878.66281	98.18412
2550.00000	98.28718	877.51249	98.28718
2600.00000	98.26540	877.77055	98.26540
2650.00000	98.50548	877.34421	98.50548
2700.00000	98.59941	875.00665	98.59941
2750.00000	98.75686	875.22860	98.75686
2800.00000	99.18364	872.74108	99.18364
2850.00000	99.39913	870.44765	99.39913
2900.00000	99.74401	868.56908	99.74401
2950.00000	100.10900	865.74904	100.10900
3000.00000	100.29403	863.47853	100.29403
3050.00000	100.56350	860.88726	100.56350
3100.00000	100.80250	857.75694	100.80250
3150.00000	100.78726	855.46884	100.78726
3200.00000	100.95413	852.90532	100.95413
3250.00000	101.18551	850.94640	101.18551
3300.00000	101.21616	848.79290	101.21616
3350.00000	101.45710	847.33449	101.45710
3400.00000	101.56954	845.54104	101.56954
3450.00000	101.77842	844.57479	101.77842
3500.00000	101.99715	843.68194	101.99715
3550.00000	102.73905	841.39516	102.73905
3600.00000	102.81914	837.24160	102.81914
3650.00000	103.07279	836.38867	103.07279
3700.00000	103.27545	834.74109	103.27545
3750.00000	103.72451	831.85122	103.72451
3800.00000	104.46531	830.41145	104.46531
3850.00000	104.98276	821.90329	104.98276
3900.00000	105.34344	814.79794	105.34344
3950.00000	104.50538	812.35410	104.50538
4000.00000	104.20287	814.59245	104.20287
4050.00000	104.67763	816.24685	104.67763
4100.00000	105.42441	816.35703	105.42441
4150.00000	107.05057	813.46492	107.05057
4200.00000	108.02522	808.71426	108.02522
4250.00000	108.13066	796.05126	108.13066
4300.00000	108.23683	792.99452	108.23683
4350.00000	108.64600	788.26816	108.64600
4400.00000	109.00774	782.16829	109.00774
4450.00000	109.09515	774.98015	109.09515
4500.00000	109.18719	768.87353	109.18719
4550.00000	109.06878	763.51796	109.06878
4600.00000	109.09147	758.22156	109.09147
4650.00000	109.10408	753.44274	109.10408
4700.00000	109.06987	748.61134	109.06987
4750.00000	109.04424	744.01963	109.04424
4800.00000	109.05642	739.69875	109.05642
4850.00000	109.06731	735.03491	109.06731
4900.00000	109.08518	729.71825	109.08518
4950.00000	109.05866	724.64833	109.05866
5000.00000	108.98501	719.10985	108.98501
5050.00000	108.85568	713.49572	108.85568
5100.00000	108.64342	707.77633	108.64342
5150.00000	108.28792	702.08083	108.28792
5200.00000	107.68504	696.94014	107.68504
5250.00000	106.84998	696.90448	106.84998
5300.00000	107.37296	697.16804	107.37296
5350.00000	107.59995	691.07402	107.59995
5400.00000	107.40391	685.27683	107.40391
5450.00000	107.07245	680.49224	107.07245
5500.00000	106.75770	676.17120	106.75770
5550.00000	106.45940	672.27140	106.45940
5600.00000	106.12846	668.01002	106.12846
5650.00000	105.69094	664.57263	105.69094
5700.00000	105.30246	661.33835	105.30246
5750.00000	104.95232	658.32625	104.95232
5800.00000	104.58822	655.82355	104.58822
5850.00000	104.23124	653.30351	104.23124
5900.00000	103.87242	650.65469	103.87242
5950.00000	103.53794	648.41505	103.53794
6000.00000	103.22867	646.17992	103.22867
6050.00000	102.91667	643.84962	102.91667
6100.00000	102.61467	641.61197	102.61467
6150.00000	102.26703	639.41609	102.26703
6200.00000	101.91604	637.77455	101.91604
6250.00000	101.60950	636.21622	101.60950
6300.00000	101.32155	634.57306	101.32155
6350.00000	100.96326	633.44950	100.96326
6400.00000	100.66811	632.38775	100.66811
6450.00000	100.40088	631.44989	100.40088
6500.00000	100.11230	630.82486	100.11230
6550.00000	99.94339	630.65365	99.94339
6600.00000	99.87405	630.30935	99.87405
6650.00000	99.83675	629.64972	99.83675
6700.00000	99.89529	629.18443	99.89529
6750.00000	100.02277	627.65505	100.02277
6800.00000	100.05698	625.50107	100.05698
6850.00000	100.00335	623.06481	100.00335
6900.00000	99.93504	620.17356	99.93504
6950.00000	99.75627	617.62170	99.75627
7000.00000	99.52449	615.16233	99.52449
7050.00000	99.32868	613.15026	99.32868
7100.00000	99.08209	611.09492	99.08209
7150.00000	98.82001	609.30590	98.82001
7200.00000	98.52021	608.23763	98.52021
7250.00000	98.19806	607.10738	98.19806
7300.00000	97.90158	606.49942	97.90158
7350.00000	97.56894	606.16915	97.56894
7400.00000	97.29534	606.47804	97.29534
7450.00000	97.09434	606.96085	97.09434
7500.00000	96.96620	607.73703	96.96620
7550.00000	96.93768	608.48586	96.93768
7600.00000	97.03949	609.61186	97.03949
7650.00000	97.22844	610.15405	97.22844
7700.00000	97.37916	610.54442	97.37916
7750.00000	97.60312	610.63203	97.60312
7800.00000	97.88089	609.99880	97.88089
7850.00000	98.04648	608.69259	98.04648
7900.00000	98.19604	607.58757	98.19604
7950.00000	98.46567	606.17894	98.46567
8000.00000	98.65605	604.24473	98.65605
8050.00000	98.79283	602.94172	98.79283
8100.00000	99.03486	601.49123	99.03486
8150.00000	99.21274	599.64851	99.21274
8200.00000	99.29157	597.78784	99.29157
8250.00000	99.45617	596.33183	99.45617
8300.00000	99.63195	594.31311	99.63195
8350.00000	99.78536	592.04635	99.78536
8400.00000	99.91769	590.00533	99.91769
8450.00000	100.11495	587.87631	100.11495
8500.00000	100.28248	585.82647	100.28248
8550.00000	100.39788	583.84182	100.39788
8600.00000	100.58222	581.85468	100.58222
8650.00000	100.71398	579.68637	100.71398
8700.00000	100.84155	577.03630	100.84155
8750.00000	101.00656	574.72130	101.00656
8800.00000	101.16558	572.15237	101.16558
8850.00000	101.35853	569.44336	101.35853
8900.00000	101.49146	566.79089	101.49146
8950.00000	101.63344	564.21255	101.63344
9000.00000	101.71036	561.46650	101.71036
9050.00000	101.82900	558.45489	101.82900
9100.00000	101.89993	555.04540	101.89993
9150.00000	101.96292	551.70994	101.96292
9200.00000	102.05122	548.61480	102.05122
9250.00000	102.10597	545.25717	102.10597
9300.00000	102.14894	541.45965	102.14894
9350.00000	102.06449	537.99316	102.06449
9400.00000	102.04431	534.38879	102.04431
9450.00000	101.97964	530.62483	101.97964
9500.00000	101.83566	526.99290	101.83566
9550.00000	101.72389	523.46979	101.72389
9600.00000	101.61198	520.26864	101.61198
9650.00000	101.44556	517.03389	101.44556
9700.00000	101.24772	514.04632	101.24772
9750.00000	101.04869	511.27702	101.04869
9800.00000	100.77890	508.66187	100.77890
9850.00000	100.52733	506.16660	100.52733
9900.00000	100.31551	504.40313	100.31551
9950.00000	100.10039	502.51989	100.10039
10000.00000	99.96568	501.37947	99.96568
10050.00000	99.81332	499.59666	99.81332
10100.00000	99.64802	498.44085	99.64802
10150.00000	99.41874	497.04379	99.41874
10200.00000	99.25415	495.93745	99.25415
10250.00000	99.10925	495.12932	99.10925
10300.00000	99.05060	494.16982	99.05060
10350.00000	98.98283	493.31832	98.98283
10400.00000	98.93120	492.45163	98.93120
10450.00000	98.92978	491.43705	98.92978
10500.00000	98.93752	490.27690	98.93752
10550.00000	98.99148	489.21879	98.99148
10600.00000	99.14504	487.41683	99.14504
10650.00000	99.20676	485.70132	99.20676
10700.00000	99.33728	483.68515	99.33728
10750.00000	99.47439	481.92999	99.47439
10800.00000	99.62535	479.35765	99.62535
10850.00000	99.73459	476.98572	99.73459
10900.00000	99.87454	474.64051	99.87454
10950.00000	99.97689	471.85488	99.97689
11000.00000	100.10470	468.91407	100.10470
11050.00000	100.14467	465.91725	100.14467
11100.00000	100.21386	463.27565	100.21386
11150.00000	100.24641	460.15948	100.24641
11200.00000	100.23857	457.07716	100.23857
11250.00000	100.17708	453.76549	100.17708
11300.00000	100.10562	450.65903	100.10562
11350.00000	100.02752	447.24379	100.02752
11400.00000	99.88459	443.81169	99.88459
11450.00000	99.73258	440.60735	99.73258
11500.00000	99.58102	437.25267	99.58102
11550.00000	99.36058	433.77812	99.36058
11600.00000	99.17174	430.67071	99.17174
11650.00000	98.96736	427.59858	98.96736
11700.00000	98.75970	424.42425	98.75970
11750.00000	98.49551	421.76549	98.49551
11800.00000	98.29262	419.49521	98.29262
11850.00000	98.07649	416.99819	98.07649
11900.00000	97.83078	415.13487	97.83078
11950.00000	97.61509	413.22699	97.61509
12000.00000	97.41269	411.92881	97.41269
12050.00000	97.16387	410.99337	97.16387
12100.00000	96.86692	409.75920	96.86692
12150.00000	96.60563	408.75988	96.60563
12200.00000	96.38421	407.39439	96.38421
12250.00000	96.17319	406.71123	96.17319
12300.00000	95.81806	405.38579	95.81806
12350.00000	95.63660	404.54188	95.63660
12400.00000	95.33286	402.87625	95.33286
12450.00000	95.22811	401.77143	95.22811
12500.00000	95.05002	401.10506	95.05002
12550.00000	94.90556	399.92346	94.90556
12600.00000	94.83913	398.13435	94.83913
12650.00000	94.82307	397.72268	94.82307
12700.00000	94.62349	396.26760	94.62349
12750.00000	94.50764	395.60175	94.50764
12800.00000	94.49340	394.25835	94.49340
12850.00000	94.29148	393.89071	94.29148
12900.00000	94.18375	391.99374	94.18375
12950.00000	94.21002	389.98430	94.21002
13000.00000	94.05420	387.74515	94.05420
13050.00000	93.99940	385.18543	93.99940
13100.00000	93.96947	382.27250	93.96947
13150.00000	94.15986	379.92715	94.15986
13200.00000	94.41228	375.09560	94.41228
13250.00000	94.96368	369.78863	94.96368
13300.00000	95.69738	369.44535	95.69738
13350.00000	96.65270	367.67399	96.65270
13400.00000	97.69437	370.57673	97.69437
13450.00000	98.33218	379.72187	98.33218
13500.00000	97.84874	392.98471	97.84874
13550.00000	96.62079	398.38951	96.62079
13600.00000	94.82902	400.56693	94.82902
13650.00000	93.12104	397.71436	93.12104
13700.00000	91.75440	392.09874	91.75440
13750.00000	90.87427	382.97377	90.87427
13800.00000	90.38807	374.24598	90.38807
13850.00000	90.37457	364.82569	90.37457
13900.00000	90.52831	354.88083	90.52831
13950.00000	91.31485	347.97568	91.31485
14000.00000	92.40389	342.79045	92.40389
14050.00000	94.05080	342.41222	94.05080
14100.00000	95.82376	345.51655	95.82376
14150.00000	96.99833	358.37561	96.99833
14200.00000	96.70888	373.78088	96.70888
14250.00000	95.28445	386.31548	95.28445
14300.00000	93.56145	390.11579	93.56145
14350.00000	92.08069	389.01674	92.08069
14400.00000	91.07976	387.37104	91.07976
14450.00000	90.45867	383.18221	90.45867
14500.00000	89.88308	378.09755	89.88308
14550.00000	89.94018	372.13194	89.94018
14600.00000	89.99755	368.05006	89.99755
14650.00000	90.47528	363.30616	90.47528
14700.00000	91.01977	359.02317	91.01977
14750.00000	91.75113	356.04410	91.75113
14800.00000	92.56564	355.25118	92.56564
14850.00000	93.53081	355.51692	93.53081
14900.00000	94.45605	358.09724	94.45605
14950.00000	94.96811	363.16037	94.96811
15000.00000	95.09875	368.15724	95.09875
15050.00000	94.96879	371.52055	94.96879
15100.00000	94.70476	373.65390	94.70476
15150.00000	94.25005	372.93507	94.25005
15200.00000	93.86122	371.24258	93.86122
15250.00000	93.62208	369.23669	93.62208
15300.00000	93.69411	365.47167	93.69411
15350.00000	93.92717	362.78346	93.92717
15400.00000	94.18712	358.18191	94.18712
15450.00000	94.60094	352.86691	94.60094
15500.00000	95.15756	350.80863	95.15756
15550.00000	95.68921	348.07916	95.68921
15600.00000	96.40709	346.56339	96.40709
15650.00000	96.83591	346.16688	96.83591
15700.00000	97.02579	346.09770	97.02579
15750.00000	97.44210	346.42534	97.44210
15800.00000	97.33480	345.79027	97.33480
15850.00000	97.27222	345.44615	97.27222
15900.00000	97.13846	343.87635	97.13846
15950.00000	97.03580	341.30800	97.03580
16000.00000	96.92272	339.18704	96.92272
16050.00000	97.00022	336.21407	97.00022
16100.00000	97.10001	334.14199	97.10001
16150.00000	97.37748	330.85042	97.37748
16200.00000	97.65952	328.78075	97.65952
16250.00000	97.95122	326.36631	97.95122
16300.00000	98.28428	324.59316	98.28428
16350.00000	98.66671	323.00583	98.66671
16400.00000	98.91366	321.90742	98.91366
16450.00000	99.12530	320.71833	99.12530
16500.00000	99.27448	319.04465	99.27448
16550.00000	99.48257	317.80316	99.48257
16600.00000	99.56847	315.29350	99.56847
16650.00000	99.59282	312.75344	99.59282
16700.00000	99.65885	310.00235	99.65885
16750.00000	99.75162	307.17701	99.75162
16800.00000	99.81555	304.47758	99.81555
16850.00000	99.93184	301.59850	99.93184
16900.00000	100.17640	299.40992	100.17640
16950.00000	100.29679	297.20260	100.29679
17000.00000	100.48428	295.25384	100.48428
17050.00000	100.64447	293.58345	100.64447
17100.00000	100.71908	291.80435	100.71908
17150.00000	100.81540	289.86108	100.81540
17200.00000	100.86616	288.15658	100.86616
17250.00000	100.93444	285.78225	100.93444
17300.00000	101.00330	283.18579	101.00330
17350.00000	101.07215	280.83212	101.07215
17400.00000	101.17704	278.48189	101.17704
17450.00000	101.30460	276.22272	101.30460
17500.00000	101.46024	273.79379	101.46024
17550.00000	101.54862	271.50977	101.54862
17600.00000	101.69359	269.26696	101.69359
17650.00000	101.87651	267.65188	101.87651
17700.00000	102.03661	265.50336	102.03661
17750.00000	102.14282	263.44871	102.14282
17800.00000	102.23545	261.18938	102.23545
17850.00000	102.30800	259.22197	102.30800
17900.00000	102.46322	257.14175	102.46322
17950.00000	102.54181	255.10800	102.54181
18000.00000	102.71213	253.01739	102.71213
18050.00000	102.83818	250.52959	102.83818
18100.00000	102.94763	248.02067	102.94763
18150.00000	103.12519	245.45882	103.12519
18200.00000	103.22577	242.99789	103.22577
18250.00000	103.38196	240.25234	103.38196
18300.00000	103.46447	237.68984	103.46447
18350.00000	103.58418	235.08462	103.58418
18400.00000	103.67610	232.33500	103.67610
18450.00000	103.79033	229.86909	103.79033
18500.00000	103.90687	227.56454	103.90687
18550.00000	104.00687	224.66980	104.00687
18600.00000	104.08570	222.14169	104.08570
18650.00000	104.22722	219.24423	104.22722
18700.00000	104.29735	216.89405	104.29735
18750.00000	104.33874	214.20261	104.33874
18800.00000	104.41817	211.46908	104.41817
18850.00000	104.47755	209.00358	104.47755
18900.00000	104.50723	206.34640	104.50723
18950.00000	104.56438	203.50158	104.56438
19000.00000	104.58559	200.90712	104.58559
19050.00000	104.63092	198.29270	104.63092
19100.00000	104.66349	195.68746	104.66349
19150.00000	104.74190	193.32227	104.74190
19200.00000	104.79740	190.53178	104.79740
19250.00000	104.81832	188.19161	104.81832
19300.00000	104.87634	185.81753	104.87634
19350.00000	104.94107	183.16129	104.94107
19400.00000	104.94397	180.71422	104.94397
19450.00000	104.98378	177.95051	104.98378
19500.00000	105.03104	175.73441	105.03104
19550.00000	105.06922	173.26050	105.06922
19600.00000	105.09812	170.75645	105.09812
19650.00000	105.13915	168.28120	105.13915
19700.00000	105.20369	165.80451	105.20369
19750.00000	105.24276	163.43406	105.24276
19800.00000	105.30185	161.19818	105.30185
19850.00000	105.35073	158.58803	105.35073
19900.00000	105.39957	156.04471	105.39957
19950.00000	105.42237	153.74226	105.42237
20000.00000	105.48225	150.95347	105.48225
20050.00000	105.53602	148.59250	105.53602
20100.00000	105.59769	145.92791	105.59769
20150.00000	105.65768	143.34516	105.65768
20200.00000	105.71314	140.65089	105.71314
20250.00000	105.77386	138.31498	105.77386
20300.00000	105.83679	135.52378	105.83679
20350.00000	105.86839	132.79489	105.86839
20400.00000	105.90142	130.28384	105.90142
20450.00000	105.94660	127.59762	105.94660
20500.00000	105.98126	124.81044	105.98126
20550.00000	106.01270	121.97377	106.01270
20600.00000	106.04487	119.29607	106.04487
20650.00000	106.10346	116.38391	106.10346
20700.00000	106.14390	113.79750	106.14390
20750.00000	106.12562	110.97044	106.12562
20800.00000	106.13823	108.22045	106.13823
20850.00000	106.14284	105.15465	106.14284
20900.00000	106.13379	102.34114	106.13379
20950.00000	106.13582	99.47728	106.13582
21000.00000	106.18891	96.47963	106.18891
21050.00000	106.14777	93.72140	106.14777
21100.00000	106.14267	90.77540	106.14267
21150.00000	106.12860	88.16886	106.12860
21200.00000	106.08897	85.26306	106.08897
21250.00000	106.03268	82.39311	106.03268
21300.00000	105.98209	79.30629	105.98209
21350.00000	105.91806	76.63088	105.91806
21400.00000	105.86770	73.59937	105.86770
21450.00000	105.86385	70.80433	105.86385
21500.00000	105.82532	68.18294	105.82532
21550.00000	105.76838	65.78057	105.76838
21600.00000	105.68402	62.70512	105.68402
21650.00000	105.61768	60.21877	105.61768
21700.00000	105.50261	57.31850	105.50261
21750.00000	105.42324	54.67772	105.42324
21800.00000	105.32388	51.94545	105.32388
21850.00000	105.25241	49.35865	105.25241
21900.00000	105.13907	46.94850	105.13907
21950.00000	105.04241	44.49021	105.04241
22000.00000	104.89812	42.16482	104.89812
22050.00000	104.78643	40.15438	104.78643
22100.00000	104.71910	38.26396	104.71910
22150.00000	104.60546	36.19728	104.60546
22200.00000	104.54973	33.72358	104.54973
22250.00000	104.50626	31.78625	104.50626
22300.00000	104.45854	29.54844	104.45854
22350.00000	104.39030	27.30988	104.39030
22400.00000	104.35038	24.85971	104.35038
22450.00000	104.30047	22.90823	104.30047
22500.00000	104.27406	20.76103	104.27406
22550.00000	104.24166	18.62841	104.24166
22600.00000	104.15642	16.70850	104.15642
22650.00000	104.12454	14.31570	104.12454
22700.00000	104.08341	12.12993	104.08341
22750.00000	104.04193	 9.72336	104.04193
22800.00000	104.02848	 7.34841	104.02848
22850.00000	103.98395	 5.10633	103.98395
22900.00000	103.98286	 3.17942	103.98286
22950.00000	103.98321	 0.79812	103.98321
23000.00000	103.90747	-1.42383	103.90747
23050.00000	103.82438	-3.85952	103.82438
23100.00000	103.78818	-6.28234	103.78818
23150.00000	103.70730	-8.56395	103.70730
23200.00000	103.65667	-11.42239	103.65667
23250.00000	103.66747	-13.83011	103.66747
23300.00000	103.67237	-16.36574	103.67237
23350.00000	103.56414	-18.66156	103.56414
