---ACOUSTIC CALIBRATION---
Filename: C:\Data\CL0809 DATA\CL08095\RightSecondary.calib
Date: 8/9/2019 4:08:55 PM
Format: 4
Probe Tube Correction File: C:\Data\Probe Tube Calibrations\74_ProbeTube.calib
Experiment VIs: 2128
EPL_CFTS.exe V15.0.1f5 (2015)
DAQmx V15.1

Attenuation (dB): 40.000000
Min Freq (Hz): 50.000000
Max Freq (Hz): 99950.000000
Freq Step (Hz): 50.000000
Sample Rate (Hz): 200000.000000
[Smoothing]
Method=None
MA.Iterations=0
MA.Length=0
Loess.Length=0
Loess.Type=Linear
Loess.Robust=FALSE


Freq(Hz)	Mag(dB)	Phase(deg)	Unsmoothed(dB)

50.00000	94.39853	224.09975	94.39853
100.00000	64.11793	292.63405	64.11793
150.00000	59.96284	465.91882	59.96284
200.00000	56.62734	502.22056	56.62734
250.00000	52.18510	808.49428	52.18510
300.00000	67.76053	833.71875	67.76053
350.00000	66.53098	1009.90397	66.53098
400.00000	62.74620	1092.09728	62.74620
450.00000	70.24694	1109.68749	70.24694
500.00000	73.33127	1201.81515	73.33127
550.00000	81.18463	1150.66078	81.18463
600.00000	80.39026	1112.84576	80.39026
650.00000	86.08883	1097.59925	86.08883
700.00000	85.69380	1097.54208	85.69380
750.00000	90.37141	1066.78773	90.37141
800.00000	91.12887	1043.90518	91.12887
850.00000	90.18035	1033.41877	90.18035
900.00000	91.26083	1029.81091	91.26083
950.00000	92.34165	1010.84355	92.34165
1000.00000	92.25608	1003.56232	92.25608
1050.00000	92.10217	991.65897	92.10217
1100.00000	90.99592	981.23385	90.99592
1150.00000	90.40782	982.03079	90.40782
1200.00000	89.93463	990.56004	89.93463
1250.00000	90.61444	994.27826	90.61444
1300.00000	92.44721	990.28308	92.44721
1350.00000	92.81642	988.83893	92.81642
1400.00000	93.65319	994.26616	93.65319
1450.00000	95.22480	985.88301	95.22480
1500.00000	96.24105	985.26075	96.24105
1550.00000	97.66107	979.78465	97.66107
1600.00000	98.83846	971.89935	98.83846
1650.00000	99.97790	968.28768	99.97790
1700.00000	103.95856	951.70786	103.95856
1750.00000	100.89414	930.05973	100.89414
1800.00000	100.82892	925.50386	100.82892
1850.00000	100.37108	916.82997	100.37108
1900.00000	99.98785	910.11304	99.98785
1950.00000	99.57301	906.19003	99.57301
2000.00000	98.60009	901.00787	98.60009
2050.00000	97.68909	902.78057	97.68909
2100.00000	98.58054	909.28223	98.58054
2150.00000	99.54944	903.79881	99.54944
2200.00000	99.78939	893.03610	99.78939
2250.00000	99.13275	888.08447	99.13275
2300.00000	98.69205	888.18106	98.69205
2350.00000	98.89224	883.55905	98.89224
2400.00000	98.80794	881.44456	98.80794
2450.00000	98.46919	878.66681	98.46919
2500.00000	98.12696	877.44970	98.12696
2550.00000	98.23376	878.24655	98.23376
2600.00000	98.26590	877.24525	98.26590
2650.00000	98.39029	876.38403	98.39029
2700.00000	98.68159	875.72302	98.68159
2750.00000	98.79522	874.19035	98.79522
2800.00000	99.02277	872.36792	99.02277
2850.00000	99.49762	871.53951	99.49762
2900.00000	99.75216	868.34072	99.75216
2950.00000	100.00986	865.92780	100.00986
3000.00000	100.33197	864.19265	100.33197
3050.00000	100.49583	861.08139	100.49583
3100.00000	100.73691	857.93265	100.73691
3150.00000	100.75723	855.62122	100.75723
3200.00000	100.81070	852.82112	100.81070
3250.00000	101.14027	850.82509	101.14027
3300.00000	101.13880	848.67642	101.13880
3350.00000	101.30868	847.29237	101.30868
3400.00000	101.54746	845.59122	101.54746
3450.00000	101.73246	844.50884	101.73246
3500.00000	101.92650	843.64621	101.92650
3550.00000	102.68923	841.28416	102.68923
3600.00000	102.74398	837.37231	102.74398
3650.00000	103.01975	836.55711	103.01975
3700.00000	103.20184	834.69307	103.20184
3750.00000	103.61524	832.11819	103.61524
3800.00000	104.40850	830.72963	104.40850
3850.00000	104.91576	821.96782	104.91576
3900.00000	105.24530	815.11366	105.24530
3950.00000	104.46800	812.45792	104.46800
4000.00000	104.15929	814.73652	104.15929
4050.00000	104.61071	816.36882	104.61071
4100.00000	105.35697	816.49718	105.35697
4150.00000	106.98622	813.63166	106.98622
4200.00000	107.96192	808.94202	107.96192
4250.00000	108.07178	796.27737	108.07178
4300.00000	108.17458	793.20479	108.17458
4350.00000	108.58236	788.46839	108.58236
4400.00000	108.94053	782.35670	108.94053
4450.00000	109.02331	775.17761	109.02331
4500.00000	109.12163	769.09770	109.12163
4550.00000	109.00514	763.80812	109.00514
4600.00000	109.02995	758.48442	109.02995
4650.00000	109.05319	753.75732	109.05319
4700.00000	109.02133	748.94028	109.02133
4750.00000	108.98762	744.31523	108.98762
4800.00000	109.00632	740.07040	109.00632
4850.00000	109.02912	735.30670	109.02912
4900.00000	109.03932	729.92427	109.03932
4950.00000	109.01736	724.91206	109.01736
5000.00000	108.94337	719.31634	108.94337
5050.00000	108.81480	713.72984	108.81480
5100.00000	108.59424	708.04722	108.59424
5150.00000	108.24117	702.28857	108.24117
5200.00000	107.59604	697.22182	107.59604
5250.00000	106.79213	697.59646	106.79213
5300.00000	107.37697	697.39590	107.37697
5350.00000	107.56889	691.22415	107.56889
5400.00000	107.36167	685.44830	107.36167
5450.00000	107.05224	680.75300	107.05224
5500.00000	106.72924	676.34937	106.72924
5550.00000	106.43999	672.41979	106.43999
5600.00000	106.09134	668.16952	106.09134
5650.00000	105.63634	664.80562	105.63634
5700.00000	105.27001	661.53001	105.27001
5750.00000	104.90316	658.53123	104.90316
5800.00000	104.53217	655.99030	104.53217
5850.00000	104.18835	653.43666	104.18835
5900.00000	103.82097	650.71256	103.82097
5950.00000	103.51044	648.52682	103.51044
6000.00000	103.20225	646.39975	103.20225
6050.00000	102.85690	643.93828	102.85690
6100.00000	102.57666	641.90950	102.57666
6150.00000	102.22013	639.77574	102.22013
6200.00000	101.86897	637.82921	101.86897
6250.00000	101.54458	636.52419	101.54458
6300.00000	101.22968	634.97634	101.22968
6350.00000	100.94000	633.36896	100.94000
6400.00000	100.63779	632.53124	100.63779
6450.00000	100.31093	631.50525	100.31093
6500.00000	100.08304	631.12131	100.08304
6550.00000	99.91035	631.23148	99.91035
6600.00000	99.85044	630.37173	99.85044
6650.00000	99.81388	630.14499	99.81388
6700.00000	99.85096	629.44614	99.85096
6750.00000	99.99013	627.54596	99.99013
6800.00000	100.00731	625.52207	100.00731
6850.00000	99.93274	622.98446	99.93274
6900.00000	99.87909	620.21036	99.87909
6950.00000	99.65341	618.12673	99.65341
7000.00000	99.50345	615.33265	99.50345
7050.00000	99.28590	613.32459	99.28590
7100.00000	98.93390	611.23568	98.93390
7150.00000	98.75156	609.76242	98.75156
7200.00000	98.45832	608.49404	98.45832
7250.00000	98.07579	606.77203	98.07579
7300.00000	97.83375	606.75650	97.83375
7350.00000	97.45445	606.51222	97.45445
7400.00000	97.25527	606.42068	97.25527
7450.00000	97.08329	607.71538	97.08329
7500.00000	96.88235	607.66622	96.88235
7550.00000	96.87835	609.05627	96.87835
7600.00000	96.96601	610.97203	96.96601
7650.00000	97.12806	610.27335	97.12806
7700.00000	97.31991	611.16658	97.31991
7750.00000	97.44974	611.01594	97.44974
7800.00000	97.78110	609.84914	97.78110
7850.00000	98.02121	609.54991	98.02121
7900.00000	98.17826	607.73755	98.17826
7950.00000	98.41965	606.22751	98.41965
8000.00000	98.51376	605.54361	98.51376
8050.00000	98.77319	603.52108	98.77319
8100.00000	99.01497	601.86725	99.01497
8150.00000	99.04588	599.88187	99.04588
8200.00000	99.25808	598.30184	99.25808
8250.00000	99.42167	596.75982	99.42167
8300.00000	99.56744	594.39706	99.56744
8350.00000	99.79358	592.86814	99.79358
8400.00000	99.85951	590.69183	99.85951
8450.00000	100.02394	588.48477	100.02394
8500.00000	100.18093	586.90733	100.18093
8550.00000	100.36574	584.12972	100.36574
8600.00000	100.53936	582.21185	100.53936
8650.00000	100.60997	580.17244	100.60997
8700.00000	100.83209	577.61979	100.83209
8750.00000	100.97111	575.52344	100.97111
8800.00000	101.10781	572.82187	101.10781
8850.00000	101.33427	570.17715	101.33427
8900.00000	101.35783	567.62239	101.35783
8950.00000	101.56632	564.95718	101.56632
9000.00000	101.70025	562.18960	101.70025
9050.00000	101.79749	558.57514	101.79749
9100.00000	101.87911	555.83593	101.87911
9150.00000	101.93647	552.75763	101.93647
9200.00000	102.05052	549.23361	102.05052
9250.00000	102.06320	546.12976	102.06320
9300.00000	102.10251	542.19927	102.10251
9350.00000	102.08713	538.67217	102.08713
9400.00000	101.98955	534.91915	101.98955
9450.00000	101.99498	531.43649	101.99498
9500.00000	101.89779	527.85742	101.89779
9550.00000	101.74429	524.02231	101.74429
9600.00000	101.60620	521.09206	101.60620
9650.00000	101.42656	517.79525	101.42656
9700.00000	101.28549	514.39814	101.28549
9750.00000	101.02056	511.66292	101.02056
9800.00000	100.80918	508.72559	100.80918
9850.00000	100.58030	506.70184	100.58030
9900.00000	100.31374	504.89200	100.31374
9950.00000	100.15599	502.95797	100.15599
10000.00000	99.96735	501.70662	99.96735
10050.00000	99.78264	499.74710	99.78264
10100.00000	99.59568	498.62424	99.59568
10150.00000	99.38330	497.02228	99.38330
10200.00000	99.26547	496.00286	99.26547
10250.00000	99.08516	495.44439	99.08516
10300.00000	99.00969	494.30310	99.00969
10350.00000	98.94091	493.72010	98.94091
10400.00000	98.83200	492.70986	98.83200
10450.00000	98.88858	491.93376	98.88858
10500.00000	98.89945	490.36955	98.89945
10550.00000	98.95245	489.40962	98.95245
10600.00000	99.06582	487.88849	99.06582
10650.00000	99.16204	486.16562	99.16204
10700.00000	99.27955	484.35172	99.27955
10750.00000	99.39108	482.28378	99.39108
10800.00000	99.56398	479.84980	99.56398
10850.00000	99.67401	477.42776	99.67401
10900.00000	99.83186	474.99025	99.83186
10950.00000	99.95039	472.39521	99.95039
11000.00000	100.07383	469.44803	100.07383
11050.00000	100.09639	466.74420	100.09639
11100.00000	100.17592	463.71680	100.17592
11150.00000	100.22224	460.63943	100.22224
11200.00000	100.21367	457.53194	100.21367
11250.00000	100.14576	454.18908	100.14576
11300.00000	100.08712	451.28038	100.08712
11350.00000	99.98252	447.51168	99.98252
11400.00000	99.83521	444.29062	99.83521
11450.00000	99.69091	440.91301	99.69091
11500.00000	99.52546	437.56143	99.52546
11550.00000	99.32181	434.19544	99.32181
11600.00000	99.10423	430.95024	99.10423
11650.00000	98.89809	428.07840	98.89809
11700.00000	98.68046	424.77724	98.68046
11750.00000	98.44727	422.17201	98.44727
11800.00000	98.21416	419.91521	98.21416
11850.00000	98.02697	417.48365	98.02697
11900.00000	97.72919	415.59874	97.72919
11950.00000	97.53888	413.59596	97.53888
12000.00000	97.31404	412.58241	97.31404
12050.00000	97.05350	411.47828	97.05350
12100.00000	96.79854	410.38162	96.79854
12150.00000	96.50530	409.31701	96.50530
12200.00000	96.28779	408.10919	96.28779
12250.00000	96.04878	407.55930	96.04878
12300.00000	95.69012	406.32785	95.69012
12350.00000	95.50809	405.24237	95.50809
12400.00000	95.19633	403.44169	95.19633
12450.00000	95.07503	402.49497	95.07503
12500.00000	94.93364	401.81693	94.93364
12550.00000	94.80191	400.86216	94.80191
12600.00000	94.69704	399.10971	94.69704
12650.00000	94.68510	398.59029	94.68510
12700.00000	94.49554	397.16246	94.49554
12750.00000	94.39449	396.51367	94.39449
12800.00000	94.37462	395.41176	94.37462
12850.00000	94.14902	394.84948	94.14902
12900.00000	94.07357	393.33138	94.07357
12950.00000	94.09815	391.34062	94.09815
13000.00000	93.88628	388.90053	93.88628
13050.00000	93.82229	386.47537	93.82229
13100.00000	93.81117	383.53856	93.81117
13150.00000	94.03158	381.39480	94.03158
13200.00000	94.23525	376.59427	94.23525
13250.00000	94.81708	371.59259	94.81708
13300.00000	95.52674	370.81639	95.52674
13350.00000	96.51715	369.41117	96.51715
13400.00000	97.58301	372.27196	97.58301
13450.00000	98.20953	381.25947	98.20953
13500.00000	97.73189	394.43249	97.73189
13550.00000	96.50178	400.23354	96.50178
13600.00000	94.65135	402.32667	94.65135
13650.00000	92.97721	399.16785	92.97721
13700.00000	91.60497	394.30819	91.60497
13750.00000	90.72517	385.05805	90.72517
13800.00000	90.26920	376.04729	90.26920
13850.00000	90.20968	367.02481	90.20968
13900.00000	90.36604	357.26155	90.36604
13950.00000	91.21493	350.53739	91.21493
14000.00000	92.34268	345.78866	92.34268
14050.00000	93.92133	344.72239	93.92133
14100.00000	95.70227	348.19847	95.70227
14150.00000	96.97699	361.26461	96.97699
14200.00000	96.61711	376.58825	96.61711
14250.00000	95.22034	388.57850	95.22034
14300.00000	93.59026	393.48253	93.59026
14350.00000	92.08192	392.19135	92.08192
14400.00000	91.05106	390.41781	91.05106
14450.00000	90.38649	385.82812	90.38649
14500.00000	90.04070	380.79643	90.04070
14550.00000	89.91898	375.08103	89.91898
14600.00000	90.09882	371.43341	90.09882
14650.00000	90.44939	367.44000	90.44939
14700.00000	91.12937	362.59180	91.12937
14750.00000	91.80188	359.37549	91.80188
14800.00000	92.64013	357.95934	92.64013
14850.00000	93.73549	358.66773	93.73549
14900.00000	94.59433	360.77442	94.59433
14950.00000	95.22443	365.92222	95.22443
15000.00000	95.44775	370.92299	95.44775
15050.00000	95.27426	375.23787	95.27426
15100.00000	94.92320	376.73894	94.92320
15150.00000	94.51346	376.10799	94.51346
15200.00000	94.28636	374.88143	94.28636
15250.00000	94.06398	372.71995	94.06398
15300.00000	94.05706	368.27291	94.05706
15350.00000	94.32931	364.96147	94.32931
15400.00000	94.66226	360.16738	94.66226
15450.00000	95.00845	355.73110	95.00845
15500.00000	95.58383	352.89018	95.58383
15550.00000	96.25361	350.23146	96.25361
15600.00000	96.82619	349.21792	96.82619
15650.00000	97.33643	348.33995	97.33643
15700.00000	97.57161	348.20976	97.57161
15750.00000	97.88380	348.29797	97.88380
15800.00000	97.83136	347.26434	97.83136
15850.00000	97.79489	347.27457	97.79489
15900.00000	97.65606	344.97457	97.65606
15950.00000	97.50297	343.17467	97.50297
16000.00000	97.37817	340.53107	97.37817
16050.00000	97.49459	337.60248	97.49459
16100.00000	97.62173	335.58429	97.62173
16150.00000	97.88560	332.06935	97.88560
16200.00000	98.16275	329.69780	98.16275
16250.00000	98.55693	326.99114	98.55693
16300.00000	98.78587	324.92604	98.78587
16350.00000	99.19293	323.65899	99.19293
16400.00000	99.37100	322.18278	99.37100
16450.00000	99.66325	320.89082	99.66325
16500.00000	99.78610	319.19206	99.78610
16550.00000	99.84529	317.42026	99.84529
16600.00000	99.94346	315.16091	99.94346
16650.00000	99.97161	312.76687	99.97161
16700.00000	100.10633	309.56529	100.10633
16750.00000	100.16251	306.88686	100.16251
16800.00000	100.23669	304.15061	100.23669
16850.00000	100.38550	301.45442	100.38550
16900.00000	100.57145	299.16240	100.57145
16950.00000	100.65167	296.78196	100.65167
17000.00000	100.85377	294.80185	100.85377
17050.00000	100.99014	292.79737	100.99014
17100.00000	101.11170	291.04711	101.11170
17150.00000	101.16719	289.19761	101.16719
17200.00000	101.18990	287.37267	101.18990
17250.00000	101.28442	284.67974	101.28442
17300.00000	101.33692	282.26785	101.33692
17350.00000	101.37092	279.91654	101.37092
17400.00000	101.46984	277.50680	101.46984
17450.00000	101.59891	275.16115	101.59891
17500.00000	101.70097	272.78829	101.70097
17550.00000	101.77606	270.59987	101.77606
17600.00000	101.96012	268.56104	101.96012
17650.00000	102.12700	266.82500	102.12700
17700.00000	102.27769	264.60172	102.27769
17750.00000	102.35360	262.06614	102.35360
17800.00000	102.44614	260.48404	102.44614
17850.00000	102.56221	258.40679	102.56221
17900.00000	102.67609	256.23688	102.67609
17950.00000	102.73446	254.32599	102.73446
18000.00000	102.87538	252.16452	102.87538
18050.00000	102.97822	249.41094	102.97822
18100.00000	103.13068	247.18909	103.13068
18150.00000	103.25462	244.64792	103.25462
18200.00000	103.36833	242.07679	103.36833
18250.00000	103.50418	239.43968	103.50418
18300.00000	103.59875	236.92419	103.59875
18350.00000	103.70802	234.28056	103.70802
18400.00000	103.79808	231.74341	103.79808
18450.00000	103.89636	229.35542	103.89636
18500.00000	104.02791	226.80997	104.02791
18550.00000	104.12544	224.20062	104.12544
18600.00000	104.20025	221.48783	104.20025
18650.00000	104.30681	218.77429	104.30681
18700.00000	104.39099	216.37812	104.39099
18750.00000	104.44225	213.89614	104.44225
18800.00000	104.51908	211.16971	104.51908
18850.00000	104.59300	208.67764	104.59300
18900.00000	104.62751	205.97665	104.62751
18950.00000	104.67773	203.15657	104.67773
19000.00000	104.69465	200.56452	104.69465
19050.00000	104.72996	197.95680	104.72996
19100.00000	104.79874	195.49999	104.79874
19150.00000	104.87015	193.01506	104.87015
19200.00000	104.91832	190.49422	104.91832
19250.00000	104.91116	188.03717	104.91116
19300.00000	104.99827	185.68844	104.99827
19350.00000	105.07103	183.00158	105.07103
19400.00000	105.07334	180.59930	105.07334
19450.00000	105.10933	177.76386	105.10933
19500.00000	105.14646	175.57914	105.14646
19550.00000	105.19590	173.08285	105.19590
19600.00000	105.22796	170.67469	105.22796
19650.00000	105.26122	168.21461	105.26122
19700.00000	105.32146	165.62519	105.32146
19750.00000	105.36839	163.17746	105.36839
19800.00000	105.41534	161.06750	105.41534
19850.00000	105.45808	158.48977	105.45808
19900.00000	105.52673	155.90024	105.52673
19950.00000	105.54250	153.66356	105.54250
20000.00000	105.60617	150.81942	105.60617
20050.00000	105.65556	148.44791	105.65556
20100.00000	105.71161	145.99795	105.71161
20150.00000	105.78290	143.25430	105.78290
20200.00000	105.85819	140.55456	105.85819
20250.00000	105.89507	138.13910	105.89507
20300.00000	105.95567	135.45767	105.95567
20350.00000	105.99498	132.86965	105.99498
20400.00000	106.03268	130.23530	106.03268
20450.00000	106.06872	127.48554	106.06872
20500.00000	106.12531	124.69023	106.12531
20550.00000	106.16151	121.92888	106.16151
20600.00000	106.20437	119.19132	106.20437
20650.00000	106.24719	116.27472	106.24719
20700.00000	106.28270	113.75102	106.28270
20750.00000	106.26901	110.91757	106.26901
20800.00000	106.29403	108.01959	106.29403
20850.00000	106.30601	105.03254	106.30601
20900.00000	106.27597	102.33167	106.27597
20950.00000	106.29575	99.35414	106.29575
21000.00000	106.30688	96.15049	106.30688
21050.00000	106.30512	93.47499	106.30512
21100.00000	106.27549	90.64539	106.27549
21150.00000	106.27600	87.91386	106.27600
21200.00000	106.23306	85.12199	106.23306
21250.00000	106.18043	82.21465	106.18043
21300.00000	106.11376	79.19109	106.11376
21350.00000	106.07443	76.27650	106.07443
21400.00000	105.99836	73.24462	105.99836
21450.00000	105.98636	70.57023	105.98636
21500.00000	105.97461	68.04335	105.97461
21550.00000	105.88929	65.40217	105.88929
21600.00000	105.79642	62.46192	105.79642
21650.00000	105.72084	59.94241	105.72084
21700.00000	105.62314	56.93652	105.62314
21750.00000	105.52945	54.38757	105.52945
21800.00000	105.42457	51.51827	105.42457
21850.00000	105.36339	49.07363	105.36339
21900.00000	105.24288	46.59184	105.24288
21950.00000	105.14927	44.25008	105.14927
22000.00000	105.00101	42.04318	105.00101
22050.00000	104.89036	39.98229	104.89036
22100.00000	104.82394	37.99197	104.82394
22150.00000	104.70174	35.92739	104.70174
22200.00000	104.67169	33.65816	104.67169
22250.00000	104.61715	31.44655	104.61715
22300.00000	104.58262	29.31539	104.58262
22350.00000	104.48884	27.07359	104.48884
22400.00000	104.45429	24.91424	104.45429
22450.00000	104.41100	22.92399	104.41100
22500.00000	104.36268	20.62102	104.36268
22550.00000	104.31927	18.44431	104.31927
22600.00000	104.26163	16.45654	104.26163
22650.00000	104.22363	14.28778	104.22363
22700.00000	104.17480	12.20162	104.17480
22750.00000	104.16155	 9.82845	104.16155
22800.00000	104.11357	 7.40332	104.11357
22850.00000	104.08035	 5.16375	104.08035
22900.00000	104.06591	 3.04271	104.06591
22950.00000	104.08454	 0.77219	104.08454
23000.00000	104.00663	-1.39053	104.00663
23050.00000	103.95239	-3.83644	103.95239
23100.00000	103.89349	-6.12603	103.89349
23150.00000	103.79068	-8.67971	103.79068
23200.00000	103.74819	-11.39454	103.74819
23250.00000	103.80607	-13.73127	103.80607
23300.00000	103.76628	-16.44087	103.76628
23350.00000	103.66833	-18.53612	103.66833
