---ACOUSTIC CALIBRATION---
Filename: C:\Data\CL0809 DATA\CL08095\RightPrimary.calib
Date: 8/9/2019 4:10:23 PM
Format: 4
Probe Tube Correction File: C:\Data\Probe Tube Calibrations\74_ProbeTube.calib
Experiment VIs: 2128
EPL_CFTS.exe V15.0.1f5 (2015)
DAQmx V15.1

Attenuation (dB): 40.000000
Min Freq (Hz): 50.000000
Max Freq (Hz): 99950.000000
Freq Step (Hz): 50.000000
Sample Rate (Hz): 200000.000000
[Smoothing]
Method=None
MA.Iterations=0
MA.Length=0
Loess.Length=0
Loess.Type=Linear
Loess.Robust=FALSE


Freq(Hz)	Mag(dB)	Phase(deg)	Unsmoothed(dB)

50.00000	87.79058	285.49932	87.79058
100.00000	73.94821	392.43713	73.94821
150.00000	72.06200	673.78857	72.06200
200.00000	62.17342	777.21062	62.17342
250.00000	60.90617	1026.79135	60.90617
300.00000	55.71413	1219.01459	55.71413
350.00000	61.99711	1355.33578	61.99711
400.00000	52.57499	1412.80032	52.57499
450.00000	63.85802	1472.23892	63.85802
500.00000	64.50929	1575.38040	64.50929
550.00000	70.59141	1533.66728	70.59141
600.00000	65.10910	1480.99128	65.10910
650.00000	75.94748	1499.09053	75.94748
700.00000	74.99324	1480.96322	74.99324
750.00000	78.62320	1449.01337	78.62320
800.00000	79.37432	1439.69309	79.37432
850.00000	78.53913	1438.74095	78.53913
900.00000	78.75859	1444.14868	78.75859
950.00000	82.29472	1442.72483	82.29472
1000.00000	84.40669	1445.52008	84.40669
1050.00000	87.47504	1434.28298	87.47504
1100.00000	89.77438	1418.48826	89.77438
1150.00000	90.87845	1404.44015	90.87845
1200.00000	91.45896	1394.26658	91.45896
1250.00000	92.30221	1386.22345	92.30221
1300.00000	93.67756	1378.78947	93.67756
1350.00000	94.94022	1365.11665	94.94022
1400.00000	95.19820	1352.51850	95.19820
1450.00000	95.06906	1342.01203	95.06906
1500.00000	95.03709	1336.05774	95.03709
1550.00000	95.25083	1330.15930	95.25083
1600.00000	95.96635	1325.84722	95.96635
1650.00000	96.67209	1322.53546	96.67209
1700.00000	100.41879	1306.78570	100.41879
1750.00000	97.38759	1286.81173	97.38759
1800.00000	96.92506	1281.48124	96.92506
1850.00000	96.49430	1275.16114	96.49430
1900.00000	96.40155	1270.16329	96.40155
1950.00000	95.92515	1265.78824	95.92515
2000.00000	95.68484	1262.92667	95.68484
2050.00000	96.01089	1260.51483	96.01089
2100.00000	96.39418	1254.91871	96.39418
2150.00000	96.65130	1246.92015	96.65130
2200.00000	96.31943	1236.86641	96.31943
2250.00000	95.38999	1231.88184	95.38999
2300.00000	95.18102	1230.89111	95.18102
2350.00000	95.35878	1225.32481	95.35878
2400.00000	95.33560	1219.27187	95.33560
2450.00000	94.78509	1211.30228	94.78509
2500.00000	93.87094	1208.16346	93.87094
2550.00000	93.53980	1205.34129	93.53980
2600.00000	93.13035	1201.87622	93.13035
2650.00000	92.61450	1199.39544	92.61450
2700.00000	92.22797	1196.25152	92.22797
2750.00000	91.71416	1194.09897	91.71416
2800.00000	91.31918	1191.51278	91.31918
2850.00000	90.94286	1190.12099	90.94286
2900.00000	90.63065	1188.29798	90.63065
2950.00000	90.43723	1186.40443	90.43723
3000.00000	90.14757	1184.17043	90.14757
3050.00000	89.71862	1181.52238	89.71862
3100.00000	89.32815	1179.35075	89.32815
3150.00000	88.68071	1178.00912	88.68071
3200.00000	88.23709	1176.38737	88.23709
3250.00000	87.92441	1175.97447	87.92441
3300.00000	87.30168	1174.69985	87.30168
3350.00000	87.05944	1173.63665	87.05944
3400.00000	86.32995	1172.87900	86.32995
3450.00000	85.62920	1171.83343	85.62920
3500.00000	84.73007	1172.45145	84.73007
3550.00000	84.14037	1173.08412	84.14037
3600.00000	82.67556	1172.88097	82.67556
3650.00000	81.31738	1178.47533	81.31738
3700.00000	79.89970	1187.53338	79.89970
3750.00000	79.15851	1199.69260	79.15851
3800.00000	79.44090	1217.88649	79.44090
3850.00000	80.28255	1227.03703	80.28255
3900.00000	81.67756	1233.30984	81.67756
3950.00000	82.09131	1241.06983	82.09131
4000.00000	82.95050	1253.12212	82.95050
4050.00000	84.63560	1259.12173	84.63560
4100.00000	86.43360	1264.04116	86.43360
4150.00000	88.99414	1265.33365	88.99414
4200.00000	90.83478	1264.46480	90.83478
4250.00000	91.77744	1255.35848	91.77744
4300.00000	92.68400	1255.80626	92.68400
4350.00000	93.93157	1254.59823	93.93157
4400.00000	95.33896	1251.52035	95.33896
4450.00000	96.33480	1244.56304	96.33480
4500.00000	97.01070	1238.93962	97.01070
4550.00000	97.22680	1235.63856	97.22680
4600.00000	97.76310	1234.66773	97.76310
4650.00000	98.69330	1234.61013	98.69330
4700.00000	99.75167	1233.03186	99.75167
4750.00000	100.83909	1230.24102	100.83909
4800.00000	101.95465	1226.98126	101.95465
4850.00000	103.07865	1223.01326	103.07865
4900.00000	104.22888	1217.97389	104.22888
4950.00000	105.41977	1212.96676	105.41977
5000.00000	106.68976	1206.97660	106.68976
5050.00000	108.08490	1200.00166	108.08490
5100.00000	109.69944	1191.42080	109.69944
5150.00000	111.64662	1179.76816	111.64662
5200.00000	114.02208	1160.04578	114.02208
5250.00000	115.50181	1122.35931	115.50181
5300.00000	112.07046	1079.86228	112.07046
5350.00000	106.26102	1065.08080	106.26102
5400.00000	101.73034	1070.26522	101.73034
5450.00000	98.81429	1080.47800	98.81429
5500.00000	96.36857	1094.03526	96.36857
5550.00000	95.21020	1117.00693	95.21020
5600.00000	96.64526	1137.16603	96.64526
5650.00000	98.92941	1144.23429	98.92941
5700.00000	100.66842	1142.40632	100.66842
5750.00000	101.59811	1138.33965	101.59811
5800.00000	102.05294	1135.93686	102.05294
5850.00000	102.41977	1134.99068	102.41977
5900.00000	102.92504	1134.64972	102.92504
5950.00000	103.57497	1134.45250	103.57497
6000.00000	104.30839	1133.81762	104.30839
6050.00000	105.12098	1132.41897	105.12098
6100.00000	105.97042	1130.48017	105.97042
6150.00000	106.81586	1127.88385	106.81586
6200.00000	107.70234	1125.04206	107.70234
6250.00000	108.63614	1121.48032	108.63614
6300.00000	109.60272	1117.10938	109.60272
6350.00000	110.58683	1111.76014	110.58683
6400.00000	111.53266	1105.48706	111.53266
6450.00000	112.41106	1098.15897	112.41106
6500.00000	113.18906	1090.12296	113.18906
6550.00000	113.88563	1081.25685	113.88563
6600.00000	114.46034	1071.84213	114.46034
6650.00000	114.91325	1061.69244	114.91325
6700.00000	115.18204	1050.64925	115.18204
6750.00000	115.16654	1039.31733	115.16654
6800.00000	114.86618	1028.56718	114.86618
6850.00000	114.36109	1018.96640	114.36109
6900.00000	113.74337	1010.72049	113.74337
6950.00000	113.09167	1003.80095	113.09167
7000.00000	112.46338	997.79491	112.46338
7050.00000	111.87229	992.68992	111.87229
7100.00000	111.32881	988.12412	111.32881
7150.00000	110.83902	983.91291	110.83902
7200.00000	110.40255	980.02000	110.40255
7250.00000	110.00987	976.21543	110.00987
7300.00000	109.62509	972.45641	109.62509
7350.00000	109.27532	968.80319	109.27532
7400.00000	108.94317	965.19922	108.94317
7450.00000	108.59900	961.58775	108.59900
7500.00000	108.26842	958.05663	108.26842
7550.00000	107.91055	954.40006	107.91055
7600.00000	107.54180	951.02820	107.54180
7650.00000	107.16938	947.73245	107.16938
7700.00000	106.78823	944.73321	106.78823
7750.00000	106.40961	941.84081	106.40961
7800.00000	106.01903	939.30813	106.01903
7850.00000	105.66570	936.91740	105.66570
7900.00000	105.32625	934.60236	105.32625
7950.00000	104.98148	932.76855	104.98148
8000.00000	104.68465	931.00230	104.68465
8050.00000	104.39937	929.28541	104.39937
8100.00000	104.15509	927.65520	104.15509
8150.00000	103.96343	926.14956	103.96343
8200.00000	103.75354	924.55412	103.75354
8250.00000	103.59123	923.07465	103.59123
8300.00000	103.47660	921.72133	103.47660
8350.00000	103.36322	920.05099	103.36322
8400.00000	103.30457	918.29736	103.30457
8450.00000	103.19894	916.52221	103.19894
8500.00000	103.12373	914.84590	103.12373
8550.00000	103.07677	913.27360	103.07677
8600.00000	103.06415	911.25724	103.06415
8650.00000	103.06665	909.35797	103.06665
8700.00000	103.03915	907.34237	103.03915
8750.00000	103.03975	905.08159	103.03975
8800.00000	103.05967	902.88296	103.05967
8850.00000	103.10370	900.44174	103.10370
8900.00000	103.10843	897.96421	103.10843
8950.00000	103.14886	895.41499	103.14886
9000.00000	103.16939	892.59707	103.16939
9050.00000	103.20839	889.72045	103.20839
9100.00000	103.20034	886.75783	103.20034
9150.00000	103.21475	883.63051	103.21475
9200.00000	103.21982	880.52681	103.21982
9250.00000	103.21156	876.91430	103.21156
9300.00000	103.18582	873.37272	103.18582
9350.00000	103.10020	869.75766	103.10020
9400.00000	102.98342	866.03323	102.98342
9450.00000	102.87785	862.20430	102.87785
9500.00000	102.70171	858.47978	102.70171
9550.00000	102.50728	854.75440	102.50728
9600.00000	102.26887	851.35031	102.26887
9650.00000	102.02791	847.95034	102.02791
9700.00000	101.73704	844.51014	101.73704
9750.00000	101.40025	841.30141	101.40025
9800.00000	100.98702	838.40234	100.98702
9850.00000	100.47628	836.09686	100.47628
9900.00000	99.93143	835.26548	99.93143
9950.00000	99.43941	836.03125	99.43941
10000.00000	99.42469	839.43669	99.42469
10050.00000	100.03716	839.33698	100.03716
10100.00000	100.41100	835.69303	100.41100
10150.00000	100.40005	831.60179	100.40005
10200.00000	100.29876	828.37577	100.29876
10250.00000	100.16804	825.95093	100.16804
10300.00000	100.09390	823.53812	100.09390
10350.00000	100.00888	821.41511	100.00888
10400.00000	99.88182	819.02204	99.88182
10450.00000	99.85386	816.90167	99.85386
10500.00000	99.86263	814.56749	99.86263
10550.00000	99.88220	812.26845	99.88220
10600.00000	99.96435	809.51425	99.96435
10650.00000	99.98406	807.07594	99.98406
10700.00000	100.04048	803.94044	100.04048
10750.00000	100.09838	800.95446	100.09838
10800.00000	100.14591	797.34914	100.14591
10850.00000	100.19673	793.96697	100.19673
10900.00000	100.25705	790.25859	100.25705
10950.00000	100.26893	786.54580	100.26893
11000.00000	100.30159	782.48865	100.30159
11050.00000	100.22205	778.53163	100.22205
11100.00000	100.21995	774.40352	100.21995
11150.00000	100.16143	770.00093	100.16143
11200.00000	100.07401	765.81527	100.07401
11250.00000	99.87693	761.23601	99.87693
11300.00000	99.74346	756.75529	99.74346
11350.00000	99.57299	752.12507	99.57299
11400.00000	99.32475	747.47780	99.32475
11450.00000	99.10264	742.79511	99.10264
11500.00000	98.83546	738.21329	98.83546
11550.00000	98.55177	733.32837	98.55177
11600.00000	98.23222	728.76651	98.23222
11650.00000	97.93408	724.27007	97.93408
11700.00000	97.61323	719.51460	97.61323
11750.00000	97.23167	715.21376	97.23167
11800.00000	96.88299	710.96301	96.88299
11850.00000	96.56517	706.64708	96.56517
11900.00000	96.14797	702.70885	96.14797
11950.00000	95.80774	698.60638	95.80774
12000.00000	95.42261	694.63106	95.42261
12050.00000	94.98532	691.33963	94.98532
12100.00000	94.54682	687.65778	94.54682
12150.00000	94.14278	683.95268	94.14278
12200.00000	93.73817	679.55422	93.73817
12250.00000	93.37064	676.34931	93.37064
12300.00000	92.82463	672.24234	92.82463
12350.00000	92.39365	668.27740	92.39365
12400.00000	91.92083	663.58644	91.92083
12450.00000	91.55798	659.09804	91.55798
12500.00000	91.19614	655.42500	91.19614
12550.00000	90.81300	650.96030	90.81300
12600.00000	90.54508	645.19287	90.54508
12650.00000	90.18859	641.06971	90.18859
12700.00000	89.80730	635.66494	89.80730
12750.00000	89.51480	630.70462	89.51480
12800.00000	89.22193	625.14900	89.22193
12850.00000	88.95809	620.53495	88.95809
12900.00000	88.64694	614.18191	88.64694
12950.00000	88.55469	607.59913	88.55469
13000.00000	88.35853	600.45632	88.35853
13050.00000	88.29387	593.64361	88.29387
13100.00000	88.29196	586.19332	88.29196
13150.00000	88.59667	579.52722	88.59667
13200.00000	88.90490	570.33163	88.90490
13250.00000	89.64420	560.45569	89.64420
13300.00000	90.55528	555.05543	90.55528
13350.00000	91.83393	548.82463	91.83393
13400.00000	93.21410	547.35624	93.21410
13450.00000	94.31256	551.99953	94.31256
13500.00000	94.35832	560.50240	94.35832
13550.00000	93.51167	562.27084	93.51167
13600.00000	92.28776	560.45276	92.28776
13650.00000	91.09355	553.17750	91.09355
13700.00000	90.28993	543.74716	90.28993
13750.00000	89.91775	530.75682	89.91775
13800.00000	90.11272	518.24865	90.11272
13850.00000	90.57978	504.75454	90.57978
13900.00000	91.25838	490.99010	91.25838
13950.00000	92.50112	479.23259	92.50112
14000.00000	94.16810	469.38451	94.16810
14050.00000	96.14973	464.30319	96.14973
14100.00000	98.44082	462.43280	98.44082
14150.00000	99.95325	470.77159	99.95325
14200.00000	100.11987	481.58167	100.11987
14250.00000	98.93006	488.85165	98.93006
14300.00000	97.49979	488.66227	97.49979
14350.00000	96.28277	483.72203	96.28277
14400.00000	95.55219	477.68773	95.55219
14450.00000	94.89581	469.24063	94.89581
14500.00000	94.63276	460.45892	94.63276
14550.00000	94.73159	450.52398	94.73159
14600.00000	94.86681	442.95886	94.86681
14650.00000	95.22498	435.28885	95.22498
14700.00000	95.84701	426.61110	95.84701
14750.00000	96.64244	420.55617	96.64244
14800.00000	97.41910	416.02039	97.41910
14850.00000	98.46729	413.16879	98.46729
14900.00000	99.24763	413.05787	99.24763
14950.00000	99.86721	415.08716	99.86721
15000.00000	99.94299	416.93497	99.94299
15050.00000	99.77307	418.92920	99.77307
15100.00000	99.43504	418.91645	99.43504
15150.00000	98.94892	416.11921	98.94892
15200.00000	98.63275	412.98542	98.63275
15250.00000	98.25728	408.80601	98.25728
15300.00000	98.15066	403.36671	98.15066
15350.00000	98.30646	398.24181	98.30646
15400.00000	98.56522	391.97342	98.56522
15450.00000	98.81774	386.16236	98.81774
15500.00000	99.28893	381.48523	99.28893
15550.00000	99.67991	377.90426	99.67991
15600.00000	100.23148	375.01535	100.23148
15650.00000	100.68563	372.94917	100.68563
15700.00000	100.91095	371.60446	100.91095
15750.00000	101.15859	370.99706	101.15859
15800.00000	101.16024	369.92804	101.16024
15850.00000	101.06231	368.62173	101.06231
15900.00000	100.92499	365.93400	100.92499
15950.00000	100.74028	362.38603	100.74028
16000.00000	100.60854	358.98754	100.60854
16050.00000	100.67524	355.11560	100.67524
16100.00000	100.67360	351.76024	100.67360
16150.00000	100.88112	347.82945	100.88112
16200.00000	101.09158	344.46124	101.09158
16250.00000	101.31964	340.65604	101.31964
16300.00000	101.63051	338.04949	101.63051
16350.00000	101.90826	335.76480	101.90826
16400.00000	102.08164	333.36851	102.08164
16450.00000	102.28231	331.54272	102.28231
16500.00000	102.39950	329.24952	102.39950
16550.00000	102.40772	326.55944	102.40772
16600.00000	102.48140	323.69402	102.48140
16650.00000	102.45100	320.35158	102.45100
16700.00000	102.43045	316.80199	102.43045
16750.00000	102.48330	313.14000	102.48330
16800.00000	102.48187	309.61300	102.48187
16850.00000	102.55057	306.32454	102.55057
16900.00000	102.67216	303.30426	102.67216
16950.00000	102.68887	300.17208	102.68887
17000.00000	102.80907	297.52473	102.80907
17050.00000	102.87571	295.41171	102.87571
17100.00000	102.91060	292.92011	102.91060
17150.00000	102.92289	290.84486	102.92289
17200.00000	102.88814	288.36634	102.88814
17250.00000	102.88661	285.48124	102.88661
17300.00000	102.85537	282.94557	102.85537
17350.00000	102.82921	280.00577	102.82921
17400.00000	102.83049	277.39484	102.83049
17450.00000	102.92805	274.95055	102.92805
17500.00000	102.96457	271.94381	102.96457
17550.00000	102.99730	269.50365	102.99730
17600.00000	103.08035	267.14362	103.08035
17650.00000	103.20840	264.90066	103.20840
17700.00000	103.29448	262.56430	103.29448
17750.00000	103.36181	259.95231	103.36181
17800.00000	103.36742	257.63178	103.36742
17850.00000	103.44392	255.36075	103.44392
17900.00000	103.48214	253.09709	103.48214
17950.00000	103.53256	250.89253	103.53256
18000.00000	103.63829	248.31003	103.63829
18050.00000	103.69211	245.66640	103.69211
18100.00000	103.78712	243.09884	103.78712
18150.00000	103.88477	240.15868	103.88477
18200.00000	103.95183	237.45130	103.95183
18250.00000	104.03370	234.59568	104.03370
18300.00000	104.09661	231.53152	104.09661
18350.00000	104.13966	228.89897	104.13966
18400.00000	104.16556	226.02173	104.16556
18450.00000	104.22025	223.44804	104.22025
18500.00000	104.28897	220.86007	104.28897
18550.00000	104.33499	217.78539	104.33499
18600.00000	104.33813	215.03743	104.33813
18650.00000	104.40639	212.22058	104.40639
18700.00000	104.43473	209.52607	104.43473
18750.00000	104.43438	206.89356	104.43438
18800.00000	104.47243	203.99144	104.47243
18850.00000	104.47274	201.37948	104.47274
18900.00000	104.45694	198.81132	104.45694
18950.00000	104.46012	195.92562	104.46012
19000.00000	104.42251	193.19567	104.42251
19050.00000	104.43900	190.46571	104.43900
19100.00000	104.42963	187.81482	104.42963
19150.00000	104.46398	185.38094	104.46398
19200.00000	104.48331	182.62164	104.48331
19250.00000	104.46040	180.28998	104.46040
19300.00000	104.50472	177.75383	104.50472
19350.00000	104.49819	174.99743	104.49819
19400.00000	104.47757	172.63733	104.47757
19450.00000	104.47642	169.91355	104.47642
19500.00000	104.48353	167.46346	104.48353
19550.00000	104.49087	164.99212	104.49087
19600.00000	104.49077	162.42257	104.49077
19650.00000	104.48930	159.89432	104.48930
19700.00000	104.52017	157.30561	104.52017
19750.00000	104.51181	154.79736	104.51181
19800.00000	104.54897	152.61601	104.54897
19850.00000	104.53927	149.89128	104.53927
19900.00000	104.56442	147.35182	104.56442
19950.00000	104.53923	144.97829	104.53923
20000.00000	104.54392	142.04824	104.54392
20050.00000	104.53994	139.84666	104.53994
20100.00000	104.56753	137.18575	104.56753
20150.00000	104.57491	134.54670	104.57491
20200.00000	104.60127	131.86066	104.60127
20250.00000	104.60815	129.65761	104.60815
20300.00000	104.61210	127.06209	104.61210
20350.00000	104.60936	124.43054	104.60936
20400.00000	104.59459	121.96354	104.59459
20450.00000	104.60545	119.49271	104.60545
20500.00000	104.60855	116.79468	104.60855
20550.00000	104.58138	114.14926	104.58138
20600.00000	104.61223	111.78918	104.61223
20650.00000	104.63815	108.96722	104.63815
20700.00000	104.64199	106.77129	104.64199
20750.00000	104.61070	104.05689	104.61070
20800.00000	104.61792	101.53692	104.61792
20850.00000	104.60267	98.82203	104.60267
20900.00000	104.61247	96.33133	104.61247
20950.00000	104.61478	93.55711	104.61478
21000.00000	104.62120	90.92165	104.62120
21050.00000	104.64010	88.16888	104.64010
21100.00000	104.64504	85.65314	104.64504
21150.00000	104.63449	83.31073	104.63449
21200.00000	104.61923	80.66619	104.61923
21250.00000	104.58070	78.02031	104.58070
21300.00000	104.58102	75.14783	104.58102
21350.00000	104.55068	72.47959	104.55068
21400.00000	104.55576	69.76425	104.55576
21450.00000	104.59161	67.03452	104.59161
21500.00000	104.61856	64.58355	104.61856
21550.00000	104.62044	61.94931	104.62044
21600.00000	104.60191	59.12904	104.60191
21650.00000	104.60476	56.31057	104.60476
21700.00000	104.55474	53.06556	104.55474
21750.00000	104.55608	50.19742	104.55608
21800.00000	104.52329	47.10851	104.52329
21850.00000	104.49980	44.27961	104.49980
21900.00000	104.44139	41.33505	104.44139
21950.00000	104.42130	38.24610	104.42130
22000.00000	104.29186	35.46246	104.29186
22050.00000	104.23893	32.73491	104.23893
22100.00000	104.16825	30.11976	104.16825
22150.00000	104.09683	27.32437	104.09683
22200.00000	104.05600	24.21433	104.05600
22250.00000	103.99231	21.46820	103.99231
22300.00000	103.90121	18.61291	103.90121
22350.00000	103.81977	15.62315	103.81977
22400.00000	103.68976	12.75807	103.68976
22450.00000	103.60741	 9.94667	103.60741
22500.00000	103.47366	 6.97547	103.47366
22550.00000	103.36660	 4.36272	103.36660
22600.00000	103.23942	 1.64658	103.23942
22650.00000	103.11770	-0.97304	103.11770
22700.00000	102.99078	-3.61247	102.99078
22750.00000	102.85250	-6.36785	102.85250
22800.00000	102.71902	-8.86494	102.71902
22850.00000	102.58018	-11.40690	102.58018
22900.00000	102.50717	-13.64616	102.50717
22950.00000	102.38029	-16.31198	102.38029
23000.00000	102.21694	-18.81084	102.21694
23050.00000	102.05541	-21.45481	102.05541
23100.00000	101.94697	-23.76935	101.94697
23150.00000	101.77227	-26.29799	101.77227
