---ACOUSTIC CALIBRATION---
Filename: C:\Data\CL0809 DATA\CL08095\RightPrimary.calib
Date: 8/9/2019 4:10:50 PM
Format: 4
Probe Tube Correction File: C:\Data\Probe Tube Calibrations\74_ProbeTube.calib
Experiment VIs: 2128
EPL_CFTS.exe V15.0.1f5 (2015)
DAQmx V15.1

Attenuation (dB): 40.000000
Min Freq (Hz): 50.000000
Max Freq (Hz): 99950.000000
Freq Step (Hz): 50.000000
Sample Rate (Hz): 200000.000000
[Smoothing]
Method=None
MA.Iterations=0
MA.Length=0
Loess.Length=0
Loess.Type=Linear
Loess.Robust=FALSE


Freq(Hz)	Mag(dB)	Phase(deg)	Unsmoothed(dB)

50.00000	88.14673	129.44737	88.14673
100.00000	68.78973	228.76554	68.78973
150.00000	67.41420	344.47289	67.41420
200.00000	64.10929	492.72357	64.10929
250.00000	58.32906	743.87397	58.32906
300.00000	67.28630	855.82017	67.28630
350.00000	55.34903	996.92279	55.34903
400.00000	60.00994	1075.40509	60.00994
450.00000	61.07764	1106.77765	61.07764
500.00000	64.12680	1221.97675	64.12680
550.00000	66.76101	1180.95232	66.76101
600.00000	65.66064	1097.96610	65.66064
650.00000	73.44531	1084.21131	73.44531
700.00000	76.49441	1142.04224	76.49441
750.00000	79.22863	1099.94956	79.22863
800.00000	79.06798	1076.04228	79.06798
850.00000	78.16345	1077.51794	78.16345
900.00000	78.65088	1084.32459	78.65088
950.00000	82.26561	1082.08106	82.26561
1000.00000	84.27228	1084.60928	84.27228
1050.00000	87.42439	1074.32750	87.42439
1100.00000	89.74148	1059.12547	89.74148
1150.00000	90.89154	1043.53897	90.89154
1200.00000	91.47694	1034.09854	91.47694
1250.00000	92.35009	1026.89600	92.35009
1300.00000	93.75954	1018.51210	93.75954
1350.00000	94.97179	1005.70123	94.97179
1400.00000	95.24866	992.20271	95.24866
1450.00000	95.10581	982.08015	95.10581
1500.00000	95.06124	975.84245	95.06124
1550.00000	95.34220	970.05618	95.34220
1600.00000	96.01318	966.13850	96.01318
1650.00000	96.65532	962.40951	96.65532
1700.00000	100.44607	947.03172	100.44607
1750.00000	97.40814	926.39016	97.40814
1800.00000	96.93913	921.44013	96.93913
1850.00000	96.48611	915.19063	96.48611
1900.00000	96.43440	910.36174	96.43440
1950.00000	95.92694	905.67899	95.92694
2000.00000	95.68928	902.99743	95.68928
2050.00000	95.99720	900.33039	95.99720
2100.00000	96.45877	894.66998	96.45877
2150.00000	96.70133	886.92493	96.70133
2200.00000	96.38017	876.69966	96.38017
2250.00000	95.39817	871.90218	95.39817
2300.00000	95.17796	871.26762	95.17796
2350.00000	95.36149	865.43147	95.36149
2400.00000	95.34556	859.08810	95.34556
2450.00000	94.77600	851.16612	94.77600
2500.00000	93.88762	848.29860	93.88762
2550.00000	93.55927	845.37669	93.55927
2600.00000	93.18086	841.80596	93.18086
2650.00000	92.65630	839.40756	92.65630
2700.00000	92.22198	836.47052	92.22198
2750.00000	91.82219	834.36187	91.82219
2800.00000	91.37331	831.44233	91.37331
2850.00000	90.94823	830.30007	90.94823
2900.00000	90.70963	828.41368	90.70963
2950.00000	90.45219	826.94027	90.45219
3000.00000	90.11490	824.17265	90.11490
3050.00000	89.77968	822.28250	89.77968
3100.00000	89.35318	819.24933	89.35318
3150.00000	88.69729	817.62100	88.69729
3200.00000	88.21419	816.55609	88.21419
3250.00000	87.89687	816.18767	87.89687
3300.00000	87.48563	814.60505	87.48563
3350.00000	87.00481	813.84500	87.00481
3400.00000	86.40793	812.37221	86.40793
3450.00000	85.69354	812.25687	85.69354
3500.00000	84.73423	811.98433	84.73423
3550.00000	84.20465	812.02788	84.20465
3600.00000	82.76057	813.06419	82.76057
3650.00000	81.29592	819.09072	81.29592
3700.00000	79.96395	827.29250	79.96395
3750.00000	79.03395	839.37159	79.03395
3800.00000	79.36593	856.41675	79.36593
3850.00000	80.23101	865.21199	80.23101
3900.00000	81.83575	872.77169	81.83575
3950.00000	82.07311	881.68925	82.07311
4000.00000	83.05469	889.88744	83.05469
4050.00000	84.60603	899.06442	84.60603
4100.00000	86.46128	903.87275	86.46128
4150.00000	88.98964	905.22638	88.98964
4200.00000	90.82055	904.64374	90.82055
4250.00000	91.77563	895.35789	91.77563
4300.00000	92.67526	895.73107	92.67526
4350.00000	93.87108	894.89409	93.87108
4400.00000	95.35131	891.64422	95.35131
4450.00000	96.33975	884.67356	96.33975
4500.00000	96.99686	879.11916	96.99686
4550.00000	97.25292	875.67524	97.25292
4600.00000	97.77766	874.93775	97.77766
4650.00000	98.68316	874.64932	98.68316
4700.00000	99.75097	872.91046	99.75097
4750.00000	100.84013	870.21362	100.84013
4800.00000	101.96057	866.95659	101.96057
4850.00000	103.07839	863.00301	103.07839
4900.00000	104.23104	858.02573	104.23104
4950.00000	105.41517	852.94007	105.41517
5000.00000	106.68279	846.91306	106.68279
5050.00000	108.07967	839.97779	108.07967
5100.00000	109.68973	831.44182	109.68973
5150.00000	111.63478	819.80308	111.63478
5200.00000	114.01214	800.24735	114.01214
5250.00000	115.50650	762.60208	115.50650
5300.00000	112.10008	719.96776	112.10008
5350.00000	106.28668	705.05480	106.28668
5400.00000	101.73130	710.25869	101.73130
5450.00000	98.83471	720.52782	98.83471
5500.00000	96.40161	734.05529	96.40161
5550.00000	95.22081	756.98020	95.22081
5600.00000	96.67626	776.98545	96.67626
5650.00000	98.93161	784.17135	98.93161
5700.00000	100.68056	782.35683	100.68056
5750.00000	101.61376	778.31547	101.61376
5800.00000	102.05167	775.84940	102.05167
5850.00000	102.42297	774.90199	102.42297
5900.00000	102.92358	774.61041	102.92358
5950.00000	103.56959	774.46457	103.56959
6000.00000	104.30941	773.79198	104.30941
6050.00000	105.11638	772.43275	105.11638
6100.00000	105.96245	770.47701	105.96245
6150.00000	106.81468	767.90351	106.81468
6200.00000	107.70198	765.06019	107.70198
6250.00000	108.63202	761.48871	108.63202
6300.00000	109.60797	757.12330	109.60797
6350.00000	110.58873	751.80289	110.58873
6400.00000	111.52606	745.54014	111.52606
6450.00000	112.41062	738.21106	112.41062
6500.00000	113.18668	730.19650	113.18668
6550.00000	113.88649	721.36826	113.88649
6600.00000	114.46867	711.98930	114.46867
6650.00000	114.92767	701.80213	114.92767
6700.00000	115.20353	690.77289	115.20353
6750.00000	115.19287	679.38384	115.19287
6800.00000	114.89231	668.59944	114.89231
6850.00000	114.38346	658.93910	114.38346
6900.00000	113.76040	650.72392	113.76040
6950.00000	113.10793	643.73624	113.10793
7000.00000	112.46819	637.78089	112.46819
7050.00000	111.88402	632.64648	111.88402
7100.00000	111.33806	628.12637	111.33806
7150.00000	110.85085	623.90899	110.85085
7200.00000	110.41675	620.01525	110.41675
7250.00000	110.02260	616.19308	110.02260
7300.00000	109.64197	612.45679	109.64197
7350.00000	109.28925	608.81993	109.28925
7400.00000	108.95138	605.16549	108.95138
7450.00000	108.61435	601.59465	108.61435
7500.00000	108.27592	597.98971	108.27592
7550.00000	107.92233	594.37832	107.92233
7600.00000	107.56021	590.97490	107.56021
7650.00000	107.18100	587.70676	107.18100
7700.00000	106.80009	584.70896	106.80009
7750.00000	106.42921	581.74328	106.42921
7800.00000	106.03556	579.24289	106.03556
7850.00000	105.67946	576.90162	105.67946
7900.00000	105.33286	574.53091	105.33286
7950.00000	105.00440	572.68902	105.00440
8000.00000	104.70557	570.87484	104.70557
8050.00000	104.42398	569.25947	104.42398
8100.00000	104.18670	567.65994	104.18670
8150.00000	103.96608	566.06922	103.96608
8200.00000	103.76901	564.56788	103.76901
8250.00000	103.60584	563.14686	103.60584
8300.00000	103.48219	561.54279	103.48219
8350.00000	103.39022	559.92038	103.39022
8400.00000	103.30356	558.21914	103.30356
8450.00000	103.18840	556.44056	103.18840
8500.00000	103.11948	554.76900	103.11948
8550.00000	103.09174	553.09907	103.09174
8600.00000	103.07720	551.25698	103.07720
8650.00000	103.06885	549.36006	103.06885
8700.00000	103.04411	547.20095	103.04411
8750.00000	103.04921	545.12758	103.04921
8800.00000	103.06354	542.85136	103.06354
8850.00000	103.10044	540.42710	103.10044
8900.00000	103.10731	537.88081	103.10731
8950.00000	103.15785	535.31709	103.15785
9000.00000	103.15945	532.43655	103.15945
9050.00000	103.20386	529.51199	103.20386
9100.00000	103.18988	526.58726	103.18988
9150.00000	103.21998	523.53663	103.21998
9200.00000	103.22435	520.43456	103.22435
9250.00000	103.17814	516.94116	103.17814
9300.00000	103.17326	513.28014	103.17326
9350.00000	103.06659	509.61554	103.06659
9400.00000	102.97213	505.92268	102.97213
9450.00000	102.84395	502.24458	102.84395
9500.00000	102.69553	498.38425	102.69553
9550.00000	102.49124	494.82972	102.49124
9600.00000	102.26692	491.28041	102.26692
9650.00000	102.02935	487.95459	102.02935
9700.00000	101.70832	484.55357	101.70832
9750.00000	101.39759	481.37584	101.39759
9800.00000	100.96107	478.35284	100.96107
9850.00000	100.47267	476.10398	100.47267
9900.00000	99.93067	475.37494	99.93067
9950.00000	99.40684	476.07703	99.40684
10000.00000	99.42007	479.45629	99.42007
10050.00000	100.00872	479.45431	100.00872
10100.00000	100.38657	475.72906	100.38657
10150.00000	100.39594	471.63319	100.39594
10200.00000	100.29562	468.33800	100.29562
10250.00000	100.17113	465.98090	100.17113
10300.00000	100.08008	463.62105	100.08008
10350.00000	100.02213	461.45019	100.02213
10400.00000	99.90622	459.12662	99.90622
10450.00000	99.87599	456.92779	99.87599
10500.00000	99.87846	454.50661	99.87846
10550.00000	99.88003	452.46347	99.88003
10600.00000	99.96093	449.58248	99.96093
10650.00000	99.99867	447.02221	99.99867
10700.00000	100.06274	443.90060	100.06274
10750.00000	100.12371	441.00290	100.12371
10800.00000	100.17870	437.35370	100.17870
10850.00000	100.23207	433.91161	100.23207
10900.00000	100.28724	430.29616	100.28724
10950.00000	100.28160	426.43490	100.28160
11000.00000	100.32182	422.45326	100.32182
11050.00000	100.25497	418.50027	100.25497
11100.00000	100.22658	414.31933	100.22658
11150.00000	100.15280	409.93756	100.15280
11200.00000	100.08455	405.74002	100.08455
11250.00000	99.89915	401.19237	99.89915
11300.00000	99.75544	396.70263	99.75544
11350.00000	99.59134	392.13248	99.59134
11400.00000	99.33513	387.43282	99.33513
11450.00000	99.10135	382.79956	99.10135
11500.00000	98.85031	378.00827	98.85031
11550.00000	98.57499	373.43990	98.57499
11600.00000	98.26035	368.77261	98.26035
11650.00000	97.92211	364.27270	97.92211
11700.00000	97.60994	359.55202	97.60994
11750.00000	97.23631	355.21747	97.23631
11800.00000	96.90788	351.06471	96.90788
11850.00000	96.56475	346.59714	96.56475
11900.00000	96.17011	342.68408	96.17011
11950.00000	95.80953	338.41493	95.80953
12000.00000	95.43791	334.77393	95.43791
12050.00000	95.01186	331.33924	95.01186
12100.00000	94.58513	327.47649	94.58513
12150.00000	94.16697	323.83452	94.16697
12200.00000	93.75278	319.76423	93.75278
12250.00000	93.34267	316.13590	93.34267
12300.00000	92.83118	312.26917	92.83118
12350.00000	92.44284	308.33420	92.44284
12400.00000	91.94543	303.46691	91.94543
12450.00000	91.58148	299.18990	91.58148
12500.00000	91.25225	295.37073	91.25225
12550.00000	90.79079	290.89653	90.79079
12600.00000	90.53615	285.24603	90.53615
12650.00000	90.21660	280.76372	90.21660
12700.00000	89.79014	275.58813	89.79014
12750.00000	89.50022	270.69916	89.50022
12800.00000	89.28853	264.93888	89.28853
12850.00000	88.91841	260.10602	88.91841
12900.00000	88.67283	254.12004	88.67283
12950.00000	88.59642	247.07294	88.59642
13000.00000	88.39501	240.24142	88.39501
13050.00000	88.34593	233.24222	88.34593
13100.00000	88.34363	226.18605	88.34363
13150.00000	88.56609	219.35171	88.56609
13200.00000	88.82131	209.51871	88.82131
13250.00000	89.70632	200.17818	89.70632
13300.00000	90.56335	194.57726	90.56335
13350.00000	91.88275	188.36735	91.88275
13400.00000	93.28962	186.88499	93.28962
13450.00000	94.33093	191.84607	94.33093
13500.00000	94.34220	200.04316	94.34220
13550.00000	93.61385	202.04472	93.61385
13600.00000	92.24494	199.75270	92.24494
13650.00000	91.18014	193.13743	91.18014
13700.00000	90.36456	183.88894	90.36456
13750.00000	89.95565	171.15668	89.95565
13800.00000	90.09795	158.00261	90.09795
13850.00000	90.61423	144.43798	90.61423
13900.00000	91.27852	130.97044	91.27852
13950.00000	92.50273	119.24380	92.50273
14000.00000	94.18621	109.27063	94.18621
14050.00000	96.22976	103.70754	96.22976
14100.00000	98.45234	102.48631	98.45234
14150.00000	99.99558	110.95546	99.99558
14200.00000	100.08410	120.86442	100.08410
14250.00000	99.01310	128.29183	99.01310
14300.00000	97.58267	128.78438	97.58267
14350.00000	96.35938	122.76312	96.35938
14400.00000	95.56807	116.83560	95.56807
14450.00000	95.03155	108.95864	95.03155
14500.00000	94.64694	99.85158	94.64694
14550.00000	94.69682	90.19156	94.69682
14600.00000	94.84215	82.39807	94.84215
14650.00000	95.27091	74.38785	95.27091
14700.00000	95.87635	65.98009	95.87635
14750.00000	96.65139	59.90007	96.65139
14800.00000	97.46010	55.51422	97.46010
14850.00000	98.47537	52.73331	98.47537
14900.00000	99.36355	52.53207	99.36355
14950.00000	99.85365	54.32374	99.85365
15000.00000	99.97842	56.16260	99.97842
15050.00000	99.73475	58.52511	99.73475
15100.00000	99.40496	57.86711	99.40496
15150.00000	98.90359	55.51973	98.90359
15200.00000	98.59575	52.24082	98.59575
15250.00000	98.22486	48.06126	98.22486
15300.00000	98.14714	42.64572	98.14714
15350.00000	98.29501	37.25255	98.29501
15400.00000	98.49933	31.68640	98.49933
15450.00000	98.78406	25.94665	98.78406
15500.00000	99.21092	21.23504	99.21092
15550.00000	99.64190	17.64416	99.64190
15600.00000	100.21189	14.76128	100.21189
15650.00000	100.68318	12.24356	100.68318
15700.00000	100.88198	11.45265	100.88198
15750.00000	101.09611	10.70046	101.09611
15800.00000	101.05688	 9.40641	101.05688
15850.00000	101.06306	 8.13327	101.06306
15900.00000	100.83857	 5.51300	100.83857
15950.00000	100.69119	 2.24009	100.69119
16000.00000	100.58910	-1.21350	100.58910
16050.00000	100.62711	-4.92593	100.62711
16100.00000	100.57973	-8.73857	100.57973
16150.00000	100.78174	-12.60011	100.78174
16200.00000	101.01498	-15.75210	101.01498
16250.00000	101.27019	-19.48503	101.27019
16300.00000	101.53838	-22.25917	101.53838
16350.00000	101.81794	-24.57130	101.81794
16400.00000	102.00462	-26.61344	102.00462
16450.00000	102.20098	-28.66778	102.20098
16500.00000	102.32498	-30.87761	102.32498
16550.00000	102.33370	-33.42501	102.33370
16600.00000	102.40133	-36.33667	102.40133
16650.00000	102.36830	-39.65101	102.36830
16700.00000	102.40457	-43.15304	102.40457
16750.00000	102.42439	-46.93492	102.42439
16800.00000	102.42345	-50.50252	102.42345
16850.00000	102.49564	-53.91542	102.49564
16900.00000	102.60558	-56.78149	102.60558
16950.00000	102.62783	-59.66459	102.62783
17000.00000	102.77505	-62.36311	102.77505
17050.00000	102.86696	-64.74471	102.86696
17100.00000	102.88235	-67.36734	102.88235
17150.00000	102.87083	-69.37441	102.87083
17200.00000	102.84483	-71.64218	102.84483
17250.00000	102.82986	-74.55234	102.82986
17300.00000	102.84827	-77.30217	102.84827
17350.00000	102.81832	-80.01927	102.81832
17400.00000	102.79141	-82.62330	102.79141
17450.00000	102.87406	-85.16370	102.87406
17500.00000	102.93421	-88.08820	102.93421
17550.00000	102.97084	-90.68831	102.97084
17600.00000	103.03824	-92.96549	103.03824
17650.00000	103.14142	-94.89468	103.14142
17700.00000	103.25967	-97.47504	103.25967
17750.00000	103.30016	-99.94218	103.30016
17800.00000	103.31744	-102.25018	103.31744
17850.00000	103.38151	-104.49081	103.38151
17900.00000	103.47183	-106.83690	103.47183
17950.00000	103.46162	-109.12951	103.46162
18000.00000	103.58080	-111.48113	103.58080
18050.00000	103.66460	-114.21890	103.66460
18100.00000	103.75932	-116.94589	103.75932
18150.00000	103.84353	-119.70198	103.84353
18200.00000	103.91368	-122.48295	103.91368
18250.00000	103.99187	-125.45412	103.99187
18300.00000	104.06272	-128.10463	104.06272
18350.00000	104.09524	-131.20000	104.09524
18400.00000	104.15535	-133.99954	104.15535
18450.00000	104.17977	-136.60936	104.17977
18500.00000	104.23761	-139.07155	104.23761
18550.00000	104.29432	-142.15332	104.29432
18600.00000	104.32955	-145.02710	104.32955
18650.00000	104.37594	-147.81565	104.37594
18700.00000	104.39935	-150.62848	104.39935
18750.00000	104.40344	-153.05487	104.40344
18800.00000	104.41262	-155.97754	104.41262
18850.00000	104.43219	-158.46067	104.43219
18900.00000	104.42675	-161.19709	104.42675
18950.00000	104.43454	-164.15239	104.43454
19000.00000	104.39443	-166.84610	104.39443
19050.00000	104.40586	-169.52382	104.40586
19100.00000	104.39957	-172.11457	104.39957
19150.00000	104.42451	-174.55247	104.42451
19200.00000	104.43226	-177.46274	104.43226
19250.00000	104.41512	-179.72203	104.41512
19300.00000	104.46109	-182.20055	104.46109
19350.00000	104.47458	-184.89942	104.47458
19400.00000	104.44709	-187.33332	104.44709
19450.00000	104.44235	-190.09401	104.44235
19500.00000	104.46485	-192.50083	104.46485
19550.00000	104.45935	-195.01411	104.45935
19600.00000	104.44435	-197.61179	104.44435
19650.00000	104.45336	-200.00189	104.45336
19700.00000	104.48230	-202.60999	104.48230
19750.00000	104.47862	-205.03921	104.47862
19800.00000	104.51175	-207.28769	104.51175
19850.00000	104.51296	-210.08114	104.51296
19900.00000	104.53114	-212.64496	104.53114
19950.00000	104.50399	-214.93775	104.50399
20000.00000	104.50131	-217.80697	104.50131
20050.00000	104.50969	-220.26213	104.50969
20100.00000	104.53017	-222.61502	104.53017
20150.00000	104.52566	-225.39695	104.52566
20200.00000	104.57392	-228.04381	104.57392
20250.00000	104.56996	-230.35204	104.56996
20300.00000	104.57431	-232.93938	104.57431
20350.00000	104.56088	-235.52024	104.56088
20400.00000	104.55944	-238.04584	104.55944
20450.00000	104.56276	-240.53404	104.56276
20500.00000	104.55488	-243.17539	104.55488
20550.00000	104.55186	-245.72607	104.55186
20600.00000	104.58207	-248.29860	104.58207
20650.00000	104.60374	-250.88931	104.60374
20700.00000	104.60868	-253.23704	104.60868
20750.00000	104.58669	-255.82930	104.58669
20800.00000	104.58188	-258.41521	104.58188
20850.00000	104.56683	-261.20742	104.56683
20900.00000	104.55612	-263.52888	104.55612
20950.00000	104.57250	-266.26471	104.57250
21000.00000	104.58712	-269.05279	104.58712
21050.00000	104.59213	-271.60021	104.59213
21100.00000	104.59615	-274.26721	104.59615
21150.00000	104.61019	-276.58132	104.61019
21200.00000	104.58274	-279.18712	104.58274
21250.00000	104.55295	-281.96411	104.55295
21300.00000	104.55479	-284.80469	104.55479
21350.00000	104.52399	-287.25780	104.52399
21400.00000	104.52812	-290.18508	104.52812
21450.00000	104.53460	-292.74181	104.53460
21500.00000	104.58022	-295.22954	104.58022
21550.00000	104.59415	-297.91236	104.59415
21600.00000	104.55316	-300.84338	104.55316
21650.00000	104.56813	-303.37304	104.56813
21700.00000	104.52246	-306.61716	104.52246
21750.00000	104.53239	-309.63215	104.53239
21800.00000	104.48308	-312.61573	104.48308
21850.00000	104.48566	-315.54334	104.48566
21900.00000	104.40429	-318.52863	104.40429
21950.00000	104.38809	-321.52359	104.38809
22000.00000	104.25193	-324.47367	104.25193
22050.00000	104.20616	-326.83311	104.20616
22100.00000	104.13510	-329.70076	104.13510
22150.00000	104.09078	-332.49303	104.09078
22200.00000	104.01026	-335.55866	104.01026
22250.00000	103.94163	-338.45871	103.94163
22300.00000	103.85782	-341.20648	103.85782
22350.00000	103.78126	-344.29824	103.78126
22400.00000	103.66899	-347.22369	103.66899
22450.00000	103.56234	-349.69957	103.56234
22500.00000	103.43312	-352.95185	103.43312
22550.00000	103.37807	-355.32896	103.37807
22600.00000	103.19784	-358.07181	103.19784
22650.00000	103.12165	-360.51470	103.12165
22700.00000	102.94093	-363.37259	102.94093
22750.00000	102.82129	-365.97782	102.82129
22800.00000	102.69196	-368.67491	102.69196
22850.00000	102.55233	-371.25882	102.55233
22900.00000	102.45847	-373.59568	102.45847
22950.00000	102.36451	-376.29090	102.36451
23000.00000	102.20802	-378.66359	102.20802
23050.00000	102.05154	-381.06479	102.05154
23100.00000	101.90145	-383.56148	101.90145
23150.00000	101.74817	-385.85990	101.74817
