---ACOUSTIC CALIBRATION---
Filename: C:\Data\CL0809 DATA\CL08095\RightPrimary.calib
Date: 8/9/2019 4:10:06 PM
Format: 4
Probe Tube Correction File: C:\Data\Probe Tube Calibrations\74_ProbeTube.calib
Experiment VIs: 2128
EPL_CFTS.exe V15.0.1f5 (2015)
DAQmx V15.1

Attenuation (dB): 40.000000
Min Freq (Hz): 50.000000
Max Freq (Hz): 99950.000000
Freq Step (Hz): 50.000000
Sample Rate (Hz): 200000.000000
[Smoothing]
Method=None
MA.Iterations=0
MA.Length=0
Loess.Length=0
Loess.Type=Linear
Loess.Robust=FALSE


Freq(Hz)	Mag(dB)	Phase(deg)	Unsmoothed(dB)

50.00000	94.29129	254.87235	94.29129
100.00000	68.04181	284.83314	68.04181
150.00000	70.41897	506.29813	70.41897
200.00000	64.77318	487.43424	64.77318
250.00000	60.54399	659.68921	60.54399
300.00000	64.05891	894.43046	64.05891
350.00000	63.66667	1023.52382	63.66667
400.00000	49.65211	1119.76746	49.65211
450.00000	63.90307	1121.91684	63.90307
500.00000	60.07055	1239.89767	60.07055
550.00000	72.48195	1191.15460	72.48195
600.00000	67.45030	1111.96277	67.45030
650.00000	78.09975	1117.09963	78.09975
700.00000	72.11364	1120.77913	72.11364
750.00000	80.08391	1078.94206	80.08391
800.00000	77.16473	1078.01734	77.16473
850.00000	79.12213	1073.80134	79.12213
900.00000	78.22276	1084.73988	78.22276
950.00000	82.59481	1081.93349	82.59481
1000.00000	83.96662	1083.87553	83.96662
1050.00000	87.63014	1074.05282	87.63014
1100.00000	89.62955	1057.21653	89.62955
1150.00000	90.94836	1045.02457	90.94836
1200.00000	91.45520	1033.13581	91.45520
1250.00000	92.34415	1027.88011	92.34415
1300.00000	93.72001	1017.25800	93.72001
1350.00000	94.82894	1006.81877	94.82894
1400.00000	95.29882	991.09606	95.29882
1450.00000	94.90296	983.27939	94.90296
1500.00000	95.27992	975.43265	95.27992
1550.00000	95.12839	970.45124	95.12839
1600.00000	96.12678	965.34942	96.12678
1650.00000	96.49766	962.91181	96.49766
1700.00000	100.56250	946.84799	100.56250
1750.00000	97.24625	926.43393	97.24625
1800.00000	97.02851	922.01713	97.02851
1850.00000	96.42482	914.59153	96.42482
1900.00000	96.44550	910.66804	96.44550
1950.00000	95.77139	904.95416	95.77139
2000.00000	95.72338	903.99087	95.72338
2050.00000	95.93920	899.37753	95.93920
2100.00000	96.33172	895.86812	96.33172
2150.00000	96.67714	885.93695	96.67714
2200.00000	96.22879	877.51198	96.22879
2250.00000	95.48640	870.97759	95.48640
2300.00000	95.05412	871.45877	95.05412
2350.00000	95.43573	864.87263	95.43573
2400.00000	95.16318	859.19891	95.16318
2450.00000	94.86965	850.97479	94.86965
2500.00000	93.69876	848.10010	93.69876
2550.00000	93.63440	846.00100	93.63440
2600.00000	92.97106	841.42964	92.97106
2650.00000	92.72830	840.41324	92.72830
2700.00000	92.16240	835.74299	92.16240
2750.00000	91.80996	834.93437	91.80996
2800.00000	91.29540	830.84853	91.29540
2850.00000	90.83748	830.47735	90.83748
2900.00000	90.60934	827.76034	90.60934
2950.00000	90.33596	827.20594	90.33596
3000.00000	90.14469	823.99206	90.14469
3050.00000	89.59270	822.33879	89.59270
3100.00000	89.38543	819.63476	89.38543
3150.00000	88.52574	817.57371	88.52574
3200.00000	88.31643	817.03142	88.31643
3250.00000	87.70615	815.70097	87.70615
3300.00000	87.44017	815.89831	87.44017
3350.00000	86.79335	813.45582	86.79335
3400.00000	86.37764	813.00498	86.37764
3450.00000	85.61176	810.58845	85.61176
3500.00000	84.58493	813.69496	84.58493
3550.00000	84.16458	811.09269	84.16458
3600.00000	82.55257	813.37308	82.55257
3650.00000	81.55037	818.42319	81.55037
3700.00000	79.65136	829.02398	79.65136
3750.00000	79.21046	839.37002	79.21046
3800.00000	78.98133	858.92338	78.98133
3850.00000	80.49973	865.56985	80.49973
3900.00000	81.66422	874.17298	81.66422
3950.00000	82.28722	881.43034	82.28722
4000.00000	82.74514	892.59339	82.74514
4050.00000	84.71853	899.31399	84.71853
4100.00000	86.37309	904.35625	86.37309
4150.00000	89.01908	905.54074	89.01908
4200.00000	90.80027	904.34588	90.80027
4250.00000	91.80851	895.68849	91.80851
4300.00000	92.68661	895.62703	92.68661
4350.00000	93.92753	894.88329	93.92753
4400.00000	95.36004	891.46396	95.36004
4450.00000	96.31707	884.68780	96.31707
4500.00000	96.99829	878.91179	96.99829
4550.00000	97.22225	875.48201	97.22225
4600.00000	97.77775	874.83896	97.77775
4650.00000	98.65921	874.58274	98.65921
4700.00000	99.72246	873.04894	99.72246
4750.00000	100.82758	870.26016	100.82758
4800.00000	101.93913	867.06543	101.93913
4850.00000	103.07842	863.12829	103.07842
4900.00000	104.21898	858.04818	104.21898
4950.00000	105.40880	853.06225	105.40880
5000.00000	106.67944	846.97478	106.67944
5050.00000	108.07777	840.06014	108.07777
5100.00000	109.69363	831.45934	109.69363
5150.00000	111.63950	819.76529	111.63950
5200.00000	114.02842	800.09641	114.02842
5250.00000	115.48583	762.19789	115.48583
5300.00000	112.03011	719.80735	112.03011
5350.00000	106.23438	705.16652	106.23438
5400.00000	101.70174	710.29586	101.70174
5450.00000	98.80916	720.56481	98.80916
5500.00000	96.33428	733.81024	96.33428
5550.00000	95.17762	757.33640	95.17762
5600.00000	96.64035	777.01953	96.64035
5650.00000	98.92855	784.39294	98.92855
5700.00000	100.65993	782.26921	100.65993
5750.00000	101.56060	778.39557	101.56060
5800.00000	102.03589	775.97410	102.03589
5850.00000	102.38984	775.01072	102.38984
5900.00000	102.92281	774.78995	102.92281
5950.00000	103.54777	774.46039	103.54777
6000.00000	104.29959	773.95134	104.29959
6050.00000	105.11014	772.32910	105.11014
6100.00000	105.94505	770.51758	105.94505
6150.00000	106.81203	767.84457	106.81203
6200.00000	107.67383	765.08057	107.67383
6250.00000	108.62413	761.50955	108.62413
6300.00000	109.58250	757.08249	109.58250
6350.00000	110.57176	751.86267	110.57176
6400.00000	111.52127	745.46046	111.52127
6450.00000	112.39478	738.17561	112.39478
6500.00000	113.17995	730.10497	113.17995
6550.00000	113.86270	721.17331	113.86270
6600.00000	114.44330	711.81688	114.44330
6650.00000	114.88942	701.54831	114.88942
6700.00000	115.14697	690.63916	115.14697
6750.00000	115.13960	679.27638	115.13960
6800.00000	114.82478	668.54336	114.82478
6850.00000	114.33187	659.02906	114.33187
6900.00000	113.70753	650.70557	113.70753
6950.00000	113.05756	643.87864	113.05756
7000.00000	112.43607	637.79092	112.43607
7050.00000	111.82720	632.74587	111.82720
7100.00000	111.30756	628.19849	111.30756
7150.00000	110.80337	623.88740	110.80337
7200.00000	110.36893	620.15683	110.36893
7250.00000	109.98504	616.16715	109.98504
7300.00000	109.58300	612.52157	109.58300
7350.00000	109.25797	608.82212	109.25797
7400.00000	108.89286	605.20380	108.89286
7450.00000	108.58059	601.75807	108.58059
7500.00000	108.23344	597.91740	108.23344
7550.00000	107.86826	594.58546	107.86826
7600.00000	107.52957	591.02408	107.52957
7650.00000	107.10687	587.77849	107.10687
7700.00000	106.77654	584.84929	106.77654
7750.00000	106.35878	581.70323	106.35878
7800.00000	105.98869	579.53671	105.98869
7850.00000	105.63832	576.83388	105.63832
7900.00000	105.26153	574.82808	105.26153
7950.00000	104.97371	572.82484	104.97371
8000.00000	104.63459	570.97084	104.63459
8050.00000	104.38255	569.49590	104.38255
8100.00000	104.12624	567.60432	104.12624
8150.00000	103.91151	566.44693	103.91151
8200.00000	103.74540	564.59575	103.74540
8250.00000	103.52296	563.22330	103.52296
8300.00000	103.45483	561.86751	103.45483
8350.00000	103.32546	560.01701	103.32546
8400.00000	103.24125	558.62012	103.24125
8450.00000	103.17768	556.53146	103.17768
8500.00000	103.03900	555.03462	103.03900
8550.00000	103.06920	553.51554	103.06920
8600.00000	103.01030	551.30938	103.01030
8650.00000	103.00458	549.79205	103.00458
8700.00000	103.01194	547.21134	103.01194
8750.00000	102.97340	545.47419	102.97340
8800.00000	103.05698	543.04561	103.05698
8850.00000	103.03307	540.57484	103.03307
8900.00000	103.07133	538.50919	103.07133
8950.00000	103.12140	535.48790	103.12140
9000.00000	103.09481	533.01551	103.09481
9050.00000	103.17499	529.99365	103.17499
9100.00000	103.10262	526.78191	103.10262
9150.00000	103.19628	524.12487	103.19628
9200.00000	103.18648	520.52885	103.18648
9250.00000	103.11692	517.51543	103.11692
9300.00000	103.18655	513.74913	103.18655
9350.00000	103.01937	509.96746	103.01937
9400.00000	102.97126	506.51474	102.97126
9450.00000	102.82943	502.42271	102.82943
9500.00000	102.64759	499.12966	102.64759
9550.00000	102.51957	495.07566	102.51957
9600.00000	102.22182	491.41756	102.22182
9650.00000	102.02467	488.65228	102.02467
9700.00000	101.72293	484.78233	101.72293
9750.00000	101.38312	482.02781	101.38312
9800.00000	100.97074	478.85560	100.97074
9850.00000	100.43400	476.45571	100.43400
9900.00000	99.95906	476.10525	99.95906
9950.00000	99.44894	476.19064	99.44894
10000.00000	99.38337	480.02181	99.38337
10050.00000	100.07377	479.74351	100.07377
10100.00000	100.39184	475.96076	100.39184
10150.00000	100.43232	472.22026	100.43232
10200.00000	100.30650	468.45803	100.30650
10250.00000	100.14395	466.62066	100.14395
10300.00000	100.12549	464.07464	100.12549
10350.00000	99.97495	461.48751	99.97495
10400.00000	99.89723	459.63589	99.89723
10450.00000	99.89650	457.00981	99.89650
10500.00000	99.87421	455.00276	99.87421
10550.00000	99.91604	452.62543	99.91604
10600.00000	99.95134	449.71487	99.95134
10650.00000	100.01050	447.33127	100.01050
10700.00000	100.07783	444.01354	100.07783
10750.00000	100.09985	441.19764	100.09985
10800.00000	100.20581	437.67160	100.20581
10850.00000	100.22107	434.01266	100.22107
10900.00000	100.28203	430.75749	100.28203
10950.00000	100.29782	426.77325	100.29782
11000.00000	100.29544	422.77456	100.29544
11050.00000	100.25457	418.79449	100.25457
11100.00000	100.22826	414.51950	100.22826
11150.00000	100.14580	410.16287	100.14580
11200.00000	100.08834	406.00463	100.08834
11250.00000	99.89617	401.16789	99.89617
11300.00000	99.74139	397.03750	99.74139
11350.00000	99.59820	392.22138	99.59820
11400.00000	99.33327	387.54365	99.33327
11450.00000	99.09917	382.92284	99.09917
11500.00000	98.84780	378.16008	98.84780
11550.00000	98.56409	373.37308	98.56409
11600.00000	98.26949	369.03354	98.26949
11650.00000	97.93376	364.28243	97.93376
11700.00000	97.60663	359.68454	97.60663
11750.00000	97.23302	355.26788	97.23302
11800.00000	96.89760	351.17709	96.89760
11850.00000	96.56165	346.89642	96.56165
11900.00000	96.16948	342.73492	96.16948
11950.00000	95.78708	338.58359	95.78708
12000.00000	95.42079	334.91480	95.42079
12050.00000	95.00681	331.17794	95.00681
12100.00000	94.56563	327.59024	94.56563
12150.00000	94.11475	324.03698	94.11475
12200.00000	93.70936	319.87748	93.70936
12250.00000	93.30352	316.57927	93.30352
12300.00000	92.76086	312.08612	92.76086
12350.00000	92.42671	308.36904	92.42671
12400.00000	91.88571	303.59383	91.88571
12450.00000	91.54634	299.38311	91.54634
12500.00000	91.19993	295.62378	91.19993
12550.00000	90.77583	291.21436	90.77583
12600.00000	90.50196	285.63962	90.50196
12650.00000	90.16426	281.26021	90.16426
12700.00000	89.76906	275.44602	89.76906
12750.00000	89.48834	270.94675	89.48834
12800.00000	89.31575	265.59379	89.31575
12850.00000	88.91204	260.57116	88.91204
12900.00000	88.72101	253.80733	88.72101
12950.00000	88.53218	247.30883	88.53218
13000.00000	88.45395	240.94331	88.45395
13050.00000	88.30008	233.56112	88.30008
13100.00000	88.26292	226.62681	88.26292
13150.00000	88.54553	219.37090	88.54553
13200.00000	88.88287	210.40510	88.88287
13250.00000	89.57518	200.53762	89.57518
13300.00000	90.56598	195.53434	90.56598
13350.00000	91.78272	189.23702	91.78272
13400.00000	93.20705	187.86350	93.20705
13450.00000	94.30749	192.39180	94.30749
13500.00000	94.28605	200.93628	94.28605
13550.00000	93.56060	202.49469	93.56060
13600.00000	92.33185	200.60735	92.33185
13650.00000	91.13243	193.98743	91.13243
13700.00000	90.30581	184.56516	90.30581
13750.00000	89.98416	171.74434	89.98416
13800.00000	90.01975	159.05253	90.01975
13850.00000	90.53295	145.22565	90.53295
13900.00000	91.23676	131.79891	91.23676
13950.00000	92.46639	120.36124	92.46639
14000.00000	94.13210	110.44632	94.13210
14050.00000	96.19639	104.95965	96.19639
14100.00000	98.38556	103.35722	98.38556
14150.00000	100.01727	111.35247	100.01727
14200.00000	100.11180	121.99878	100.11180
14250.00000	98.97077	129.57366	98.97077
14300.00000	97.58962	129.73312	97.58962
14350.00000	96.35299	124.24109	96.35299
14400.00000	95.58011	118.22373	95.58011
14450.00000	95.00526	109.76790	95.00526
14500.00000	94.67932	100.92648	94.67932
14550.00000	94.70481	91.41185	94.70481
14600.00000	94.88215	83.74788	94.88215
14650.00000	95.36975	75.75250	95.36975
14700.00000	95.94443	67.67302	95.94443
14750.00000	96.66716	61.64233	96.66716
14800.00000	97.51369	56.53157	97.51369
14850.00000	98.52854	54.35174	98.52854
14900.00000	99.44309	54.03530	99.44309
14950.00000	99.96288	56.03405	99.96288
15000.00000	100.05750	57.99443	100.05750
15050.00000	99.92374	59.57113	99.92374
15100.00000	99.57883	59.57421	99.57883
15150.00000	99.01499	57.23044	99.01499
15200.00000	98.69125	53.44983	98.69125
15250.00000	98.45450	49.47907	98.45450
15300.00000	98.28133	43.82251	98.28133
15350.00000	98.45004	38.48729	98.45004
15400.00000	98.64978	32.41716	98.64978
15450.00000	98.94418	26.76332	98.94418
15500.00000	99.43875	22.12375	99.43875
15550.00000	99.77763	18.51057	99.77763
15600.00000	100.37913	15.22327	100.37913
15650.00000	100.84233	13.42117	100.84233
15700.00000	101.02816	12.05807	101.02816
15750.00000	101.30574	11.06717	101.30574
15800.00000	101.26462	 9.92397	101.26462
15850.00000	101.25987	 8.75518	101.25987
15900.00000	101.01547	 6.01439	101.01547
15950.00000	100.89832	 2.61164	100.89832
16000.00000	100.75944	-0.82551	100.75944
16050.00000	100.77533	-4.53261	100.77533
16100.00000	100.82691	-8.37681	100.82691
16150.00000	101.00525	-12.42666	101.00525
16200.00000	101.24803	-15.60705	101.24803
16250.00000	101.49593	-19.25480	101.49593
16300.00000	101.69037	-22.09604	101.69037
16350.00000	102.00692	-24.74980	102.00692
16400.00000	102.20579	-26.78032	102.20579
16450.00000	102.42626	-28.71458	102.42626
16500.00000	102.50314	-31.28305	102.50314
16550.00000	102.50956	-33.75402	102.50956
16600.00000	102.57230	-36.54563	102.57230
16650.00000	102.53036	-40.06730	102.53036
16700.00000	102.55808	-43.81265	102.55808
16750.00000	102.58396	-47.22532	102.58396
16800.00000	102.57201	-50.71978	102.57201
16850.00000	102.64425	-54.33298	102.64425
16900.00000	102.75379	-57.16749	102.75379
16950.00000	102.79236	-60.09308	102.79236
17000.00000	102.87762	-62.74068	102.87762
17050.00000	102.95860	-65.25467	102.95860
17100.00000	102.97262	-67.69148	102.97262
17150.00000	102.92874	-69.82905	102.92874
17200.00000	102.96486	-72.40988	102.96486
17250.00000	102.94774	-74.88978	102.94774
17300.00000	102.89887	-77.63427	102.89887
17350.00000	102.89680	-80.68962	102.89680
17400.00000	102.91590	-83.13421	102.91590
17450.00000	102.98835	-85.75318	102.98835
17500.00000	103.01605	-88.52596	103.01605
17550.00000	103.03744	-91.34554	103.03744
17600.00000	103.12595	-93.35340	103.12595
17650.00000	103.20804	-95.50943	103.20804
17700.00000	103.36186	-98.09190	103.36186
17750.00000	103.36706	-100.55909	103.36706
17800.00000	103.39745	-102.73997	103.39745
17850.00000	103.44848	-104.99098	103.44848
17900.00000	103.52879	-107.37338	103.52879
17950.00000	103.49644	-109.62595	103.49644
18000.00000	103.63793	-112.32172	103.63793
18050.00000	103.70379	-114.99370	103.70379
18100.00000	103.78483	-117.43235	103.78483
18150.00000	103.88153	-120.23874	103.88153
18200.00000	103.94778	-123.04891	103.94778
18250.00000	104.01313	-125.79689	104.01313
18300.00000	104.08284	-128.52475	104.08284
18350.00000	104.12420	-131.46975	104.12420
18400.00000	104.15719	-134.38126	104.15719
18450.00000	104.19163	-136.92576	104.19163
18500.00000	104.26390	-139.45359	104.26390
18550.00000	104.31457	-142.37243	104.31457
18600.00000	104.30876	-145.08858	104.30876
18650.00000	104.37206	-147.97882	104.37206
18700.00000	104.40272	-150.59198	104.40272
18750.00000	104.40469	-153.34044	104.40469
18800.00000	104.43220	-156.15688	104.43220
18850.00000	104.43917	-158.69915	104.43917
18900.00000	104.41693	-161.42506	104.41693
18950.00000	104.43572	-164.31283	104.43572
19000.00000	104.39942	-166.79240	104.39942
19050.00000	104.42478	-169.65739	104.42478
19100.00000	104.41548	-172.07599	104.41548
19150.00000	104.45201	-174.60035	104.45201
19200.00000	104.46161	-177.34723	104.46161
19250.00000	104.44832	-179.82643	104.44832
19300.00000	104.47763	-182.18445	104.47763
19350.00000	104.49541	-184.92570	104.49541
19400.00000	104.47277	-187.29348	104.47277
19450.00000	104.48073	-190.04699	104.48073
19500.00000	104.46758	-192.57801	104.46758
19550.00000	104.48486	-194.94246	104.48486
19600.00000	104.47279	-197.56514	104.47279
19650.00000	104.49411	-200.06375	104.49411
19700.00000	104.51792	-202.64273	104.51792
19750.00000	104.52148	-205.08047	104.52148
19800.00000	104.54311	-207.44454	104.54311
19850.00000	104.52411	-209.99783	104.52411
19900.00000	104.55113	-212.55780	104.55113
19950.00000	104.53066	-214.87158	104.53066
20000.00000	104.54283	-217.78033	104.54283
20050.00000	104.55075	-220.23513	104.55075
20100.00000	104.55533	-222.69345	104.55533
20150.00000	104.58619	-225.48379	104.58619
20200.00000	104.60068	-228.04963	104.60068
20250.00000	104.60975	-230.32836	104.60975
20300.00000	104.61842	-232.97266	104.61842
20350.00000	104.61942	-235.48953	104.61942
20400.00000	104.61650	-237.99805	104.61650
20450.00000	104.61142	-240.57686	104.61142
20500.00000	104.62521	-243.11107	104.62521
20550.00000	104.60157	-245.66463	104.60157
20600.00000	104.60469	-248.23334	104.60469
20650.00000	104.62610	-250.93342	104.62610
20700.00000	104.66871	-253.25366	104.66871
20750.00000	104.65344	-255.75677	104.65344
20800.00000	104.63554	-258.33573	104.63554
20850.00000	104.64415	-261.24094	104.64415
20900.00000	104.61291	-263.66479	104.61291
20950.00000	104.61987	-266.29224	104.61987
21000.00000	104.64399	-269.10819	104.64399
21050.00000	104.63018	-271.71576	104.63018
21100.00000	104.64164	-274.32724	104.64164
21150.00000	104.65549	-276.81922	104.65549
21200.00000	104.62627	-279.31085	104.62627
21250.00000	104.61684	-281.90290	104.61684
21300.00000	104.60476	-284.70397	104.60476
21350.00000	104.56654	-287.32939	104.56654
21400.00000	104.56689	-290.39884	104.56689
21450.00000	104.60786	-292.72557	104.60786
21500.00000	104.62110	-295.46028	104.62110
21550.00000	104.62266	-298.19436	104.62266
21600.00000	104.60714	-300.99185	104.60714
21650.00000	104.60717	-303.68840	104.60717
21700.00000	104.59201	-306.78681	104.59201
21750.00000	104.56062	-309.75289	104.56062
21800.00000	104.52421	-312.74672	104.52421
21850.00000	104.49486	-315.79727	104.49486
21900.00000	104.46994	-318.73536	104.46994
21950.00000	104.43138	-321.52612	104.43138
22000.00000	104.31928	-324.49148	104.31928
22050.00000	104.24357	-327.31447	104.24357
22100.00000	104.16332	-329.92378	104.16332
22150.00000	104.11224	-332.58076	104.11224
22200.00000	104.03111	-335.81446	104.03111
22250.00000	103.96938	-338.61425	103.96938
22300.00000	103.90213	-341.49873	103.90213
22350.00000	103.79110	-344.38881	103.79110
22400.00000	103.68253	-347.54172	103.68253
22450.00000	103.61281	-350.03203	103.61281
22500.00000	103.45713	-352.81925	103.45713
22550.00000	103.35604	-355.72902	103.35604
22600.00000	103.21187	-358.20630	103.21187
22650.00000	103.13938	-360.79005	103.13938
22700.00000	102.97354	-363.60034	102.97354
22750.00000	102.85488	-366.41122	102.85488
22800.00000	102.72476	-368.84310	102.72476
22850.00000	102.56966	-371.43452	102.56966
22900.00000	102.51501	-373.82353	102.51501
22950.00000	102.38458	-376.21787	102.38458
23000.00000	102.22276	-378.64192	102.22276
23050.00000	102.07483	-381.25568	102.07483
23100.00000	101.92589	-383.71966	101.92589
23150.00000	101.76023	-386.07641	101.76023
