---ACOUSTIC CALIBRATION---
Filename: C:\Data\CL0809 DATA\CL08095\RightSecondary.calib
Date: 8/9/2019 4:09:51 PM
Format: 4
Probe Tube Correction File: C:\Data\Probe Tube Calibrations\74_ProbeTube.calib
Experiment VIs: 2128
EPL_CFTS.exe V15.0.1f5 (2015)
DAQmx V15.1

Attenuation (dB): 40.000000
Min Freq (Hz): 50.000000
Max Freq (Hz): 99950.000000
Freq Step (Hz): 50.000000
Sample Rate (Hz): 200000.000000
[Smoothing]
Method=None
MA.Iterations=0
MA.Length=0
Loess.Length=0
Loess.Type=Linear
Loess.Robust=FALSE


Freq(Hz)	Mag(dB)	Phase(deg)	Unsmoothed(dB)

50.00000	93.59664	329.11491	93.59664
100.00000	64.01146	363.84698	64.01146
150.00000	68.44702	679.21708	68.44702
200.00000	71.17569	826.35599	71.17569
250.00000	62.72097	1023.59246	62.72097
300.00000	67.35952	1236.26330	67.35952
350.00000	68.09598	1359.19094	68.09598
400.00000	65.14028	1424.49959	65.14028
450.00000	70.24656	1478.17335	70.24656
500.00000	74.70274	1584.97648	74.70274
550.00000	79.75562	1511.06307	79.75562
600.00000	79.97572	1476.28350	79.97572
650.00000	86.82243	1459.37256	86.82243
700.00000	85.92274	1460.32631	85.92274
750.00000	90.21771	1424.87547	90.21771
800.00000	91.19531	1405.67045	91.19531
850.00000	90.47248	1395.39655	90.47248
900.00000	91.04094	1387.90854	91.04094
950.00000	92.30996	1372.34063	92.30996
1000.00000	92.21614	1365.33929	92.21614
1050.00000	92.06116	1349.65744	92.06116
1100.00000	91.07215	1342.18549	91.07215
1150.00000	90.24645	1342.98032	90.24645
1200.00000	89.85586	1349.34587	89.85586
1250.00000	90.97755	1352.81293	90.97755
1300.00000	92.08098	1351.24906	92.08098
1350.00000	92.77540	1349.58166	92.77540
1400.00000	93.79649	1350.11896	93.79649
1450.00000	94.89175	1348.14143	94.89175
1500.00000	96.27524	1345.41122	96.27524
1550.00000	97.62130	1338.40664	97.62130
1600.00000	98.84195	1332.94551	98.84195
1650.00000	99.90655	1328.46421	99.90655
1700.00000	103.99357	1311.63431	103.99357
1750.00000	101.00367	1290.24610	101.00367
1800.00000	100.70735	1285.14923	100.70735
1850.00000	100.41203	1277.48109	100.41203
1900.00000	100.17568	1270.39558	100.17568
1950.00000	99.44262	1265.63569	99.44262
2000.00000	98.66364	1261.77744	98.66364
2050.00000	97.80240	1263.31360	97.80240
2100.00000	98.45730	1269.20483	98.45730
2150.00000	99.66287	1263.57860	99.66287
2200.00000	99.80970	1254.07625	99.80970
2250.00000	99.17823	1248.60511	99.17823
2300.00000	98.86443	1247.43011	98.86443
2350.00000	98.84020	1244.10004	98.84020
2400.00000	98.83053	1241.66749	98.83053
2450.00000	98.57490	1237.48151	98.57490
2500.00000	98.03904	1238.14528	98.03904
2550.00000	98.17136	1237.97801	98.17136
2600.00000	98.31105	1237.19645	98.31105
2650.00000	98.38748	1236.95933	98.38748
2700.00000	98.59998	1235.36451	98.59998
2750.00000	98.82170	1234.57460	98.82170
2800.00000	99.11623	1232.52880	99.11623
2850.00000	99.43291	1230.89003	99.43291
2900.00000	99.76698	1228.42763	99.76698
2950.00000	100.04678	1226.10802	100.04678
3000.00000	100.27560	1223.77928	100.27560
3050.00000	100.52135	1220.85989	100.52135
3100.00000	100.73783	1218.04687	100.73783
3150.00000	100.72312	1215.65521	100.72312
3200.00000	100.89926	1212.79982	100.89926
3250.00000	101.11971	1210.87447	101.11971
3300.00000	101.12755	1208.70566	101.12755
3350.00000	101.40724	1207.22918	101.40724
3400.00000	101.55023	1205.48391	101.55023
3450.00000	101.73647	1204.61948	101.73647
3500.00000	101.97385	1203.67640	101.97385
3550.00000	102.70066	1201.36124	102.70066
3600.00000	102.78424	1197.33630	102.78424
3650.00000	103.03840	1196.59799	103.03840
3700.00000	103.23312	1194.80353	103.23312
3750.00000	103.67138	1192.04276	103.67138
3800.00000	104.43771	1190.61819	104.43771
3850.00000	104.93870	1182.00814	104.93870
3900.00000	105.29292	1174.99381	105.29292
3950.00000	104.47886	1172.38928	104.47886
4000.00000	104.17168	1174.70377	104.17168
4050.00000	104.63676	1176.30511	104.63676
4100.00000	105.38559	1176.47277	105.38559
4150.00000	107.01353	1173.54542	107.01353
4200.00000	107.98639	1168.85659	107.98639
4250.00000	108.09355	1156.21315	108.09355
4300.00000	108.20401	1153.19279	108.20401
4350.00000	108.61213	1148.38586	108.61213
4400.00000	108.96948	1142.29916	108.96948
4450.00000	109.05884	1135.09849	109.05884
4500.00000	109.14843	1128.98409	109.14843
4550.00000	109.03588	1123.69737	109.03588
4600.00000	109.05962	1118.38723	109.05962
4650.00000	109.07013	1113.62157	109.07013
4700.00000	109.03686	1108.78940	109.03686
4750.00000	109.01239	1104.20873	109.01239
4800.00000	109.02302	1099.85858	109.02302
4850.00000	109.03915	1095.17878	109.03915
4900.00000	109.05589	1089.85337	109.05589
4950.00000	109.03290	1084.76143	109.03290
5000.00000	108.96098	1079.23081	108.96098
5050.00000	108.82877	1073.60631	108.82877
5100.00000	108.61612	1067.93258	108.61612
5150.00000	108.26150	1062.24070	108.26150
5200.00000	107.64130	1057.17337	107.64130
5250.00000	106.81597	1057.16952	106.81597
5300.00000	107.36131	1057.33392	107.36131
5350.00000	107.57186	1051.14110	107.57186
5400.00000	107.37567	1045.34705	107.37567
5450.00000	107.05124	1040.60116	107.05124
5500.00000	106.74437	1036.19586	106.74437
5550.00000	106.43950	1032.36221	106.43950
5600.00000	106.10564	1028.08992	106.10564
5650.00000	105.66596	1024.71164	105.66596
5700.00000	105.26603	1021.43260	105.26603
5750.00000	104.92047	1018.48375	104.92047
5800.00000	104.55124	1015.97393	104.55124
5850.00000	104.19936	1013.28317	104.19936
5900.00000	103.84140	1010.72405	103.84140
5950.00000	103.51703	1008.44692	103.51703
6000.00000	103.20437	1006.32815	103.20437
6050.00000	102.89532	1003.94584	102.89532
6100.00000	102.58631	1001.74892	102.58631
6150.00000	102.22333	999.57652	102.22333
6200.00000	101.88863	997.96677	101.88863
6250.00000	101.56226	996.30224	101.56226
6300.00000	101.25415	994.80838	101.25415
6350.00000	100.93519	993.37713	100.93519
6400.00000	100.63452	992.33318	100.63452
6450.00000	100.36180	991.55151	100.36180
6500.00000	100.10599	991.04588	100.10599
6550.00000	99.93107	990.69845	99.93107
6600.00000	99.82737	990.46866	99.82737
6650.00000	99.80991	990.14667	99.80991
6700.00000	99.87983	989.19723	99.87983
6750.00000	99.94433	987.64368	99.94433
6800.00000	100.00550	985.46558	100.00550
6850.00000	99.96128	983.01482	99.96128
6900.00000	99.87422	980.51076	99.87422
6950.00000	99.71144	977.89115	99.71144
7000.00000	99.51598	975.38565	99.51598
7050.00000	99.28856	973.22826	99.28856
7100.00000	99.03853	971.36692	99.03853
7150.00000	98.76796	969.56059	98.76796
7200.00000	98.45443	968.27986	98.45443
7250.00000	98.13209	967.22419	98.13209
7300.00000	97.82756	966.51085	97.82756
7350.00000	97.52714	966.16677	97.52714
7400.00000	97.27671	966.41898	97.27671
7450.00000	97.08805	967.14915	97.08805
7500.00000	96.96739	968.12358	96.96739
7550.00000	96.92840	969.02485	96.92840
7600.00000	96.99022	970.00067	96.99022
7650.00000	97.11505	970.61745	97.11505
7700.00000	97.32013	970.80203	97.32013
7750.00000	97.53401	970.39466	97.53401
7800.00000	97.76587	969.83703	97.76587
7850.00000	98.04086	968.97680	98.04086
7900.00000	98.22112	967.63259	98.22112
7950.00000	98.42391	966.34303	98.42391
8000.00000	98.58431	964.92662	98.58431
8050.00000	98.78478	963.31614	98.78478
8100.00000	98.95303	961.65626	98.95303
8150.00000	99.12880	960.04585	99.12880
8200.00000	99.26134	958.07258	99.26134
8250.00000	99.43080	956.36354	99.43080
8300.00000	99.58935	954.44778	99.58935
8350.00000	99.74694	952.56630	99.74694
8400.00000	99.91496	950.59426	99.91496
8450.00000	100.04871	948.40590	100.04871
8500.00000	100.19827	946.11805	100.19827
8550.00000	100.34573	944.33030	100.34573
8600.00000	100.51640	942.04372	100.51640
8650.00000	100.66498	939.87476	100.66498
8700.00000	100.82347	937.56806	100.82347
8750.00000	100.97238	935.26917	100.97238
8800.00000	101.11561	932.55457	101.11561
8850.00000	101.29187	929.82933	101.29187
8900.00000	101.41058	927.40784	101.41058
8950.00000	101.57900	924.68001	101.57900
9000.00000	101.67392	921.66054	101.67392
9050.00000	101.81147	918.73312	101.81147
9100.00000	101.86911	915.74598	101.86911
9150.00000	101.96438	912.34741	101.96438
9200.00000	102.01660	909.15331	102.01660
9250.00000	102.05675	905.76572	102.05675
9300.00000	102.09709	902.12065	102.09709
9350.00000	102.08610	898.44840	102.08610
9400.00000	102.01993	894.83068	102.01993
9450.00000	101.96575	891.28194	101.96575
9500.00000	101.87969	887.66302	101.87969
9550.00000	101.73673	884.08248	101.73673
9600.00000	101.58931	880.86907	101.58931
9650.00000	101.43249	877.65946	101.43249
9700.00000	101.24921	874.39404	101.24921
9750.00000	101.03292	871.59588	101.03292
9800.00000	100.80126	868.97819	100.80126
9850.00000	100.57516	866.61010	100.57516
9900.00000	100.33692	864.88891	100.33692
9950.00000	100.11057	862.87023	100.11057
10000.00000	99.95330	861.70752	99.95330
10050.00000	99.79039	859.98450	99.79039
10100.00000	99.62671	858.57954	99.62671
10150.00000	99.43441	857.04994	99.43441
10200.00000	99.25424	855.98877	99.25424
10250.00000	99.12297	855.26428	99.12297
10300.00000	99.05672	854.66128	99.05672
10350.00000	98.98583	853.68442	98.98583
10400.00000	98.91039	852.85508	98.91039
10450.00000	98.90345	851.78873	98.90345
10500.00000	98.93360	850.57212	98.93360
10550.00000	98.97042	849.41373	98.97042
10600.00000	99.12008	847.76657	99.12008
10650.00000	99.20928	846.11058	99.20928
10700.00000	99.32503	844.03914	99.32503
10750.00000	99.45198	842.15720	99.45198
10800.00000	99.58498	839.64728	99.58498
10850.00000	99.73344	837.41231	99.73344
10900.00000	99.88252	834.86917	99.88252
10950.00000	99.97231	832.07054	99.97231
11000.00000	100.09792	829.29985	100.09792
11050.00000	100.12587	826.38766	100.12587
11100.00000	100.21275	823.46555	100.21275
11150.00000	100.22641	820.37390	100.22641
11200.00000	100.23219	817.43186	100.23219
11250.00000	100.15659	814.01479	100.15659
11300.00000	100.09847	811.02735	100.09847
11350.00000	100.03213	807.55384	100.03213
11400.00000	99.87166	804.14817	99.87166
11450.00000	99.71439	800.69296	99.71439
11500.00000	99.55133	797.34295	99.55133
11550.00000	99.35966	794.02161	99.35966
11600.00000	99.14667	790.91375	99.14667
11650.00000	98.92020	787.82906	98.92020
11700.00000	98.72996	784.71411	98.72996
11750.00000	98.46281	782.03194	98.46281
11800.00000	98.27154	779.66265	98.27154
11850.00000	98.06669	777.32422	98.06669
11900.00000	97.79056	775.40291	97.79056
11950.00000	97.58440	773.55372	97.58440
12000.00000	97.39650	772.26656	97.39650
12050.00000	97.11425	771.27426	97.11425
12100.00000	96.83225	770.12718	96.83225
12150.00000	96.58785	769.03770	96.58785
12200.00000	96.34081	767.80759	96.34081
12250.00000	96.11974	767.14839	96.11974
12300.00000	95.76772	766.08035	95.76772
12350.00000	95.57718	765.07850	95.57718
12400.00000	95.25190	763.39986	95.25190
12450.00000	95.15885	762.28965	95.15885
12500.00000	95.00414	761.53991	95.00414
12550.00000	94.85172	760.66264	94.85172
12600.00000	94.77611	758.68531	94.77611
12650.00000	94.73757	758.28095	94.73757
12700.00000	94.58070	756.71634	94.58070
12750.00000	94.47453	756.09247	94.47453
12800.00000	94.42834	755.20361	94.42834
12850.00000	94.23206	754.57072	94.23206
12900.00000	94.13061	752.70941	94.13061
12950.00000	94.17413	750.60889	94.17413
13000.00000	94.00354	748.21202	94.00354
13050.00000	93.93664	745.92070	93.93664
13100.00000	93.92896	742.72555	93.92896
13150.00000	94.12725	740.61962	94.12725
13200.00000	94.34294	735.91223	94.34294
13250.00000	94.87794	730.72267	94.87794
13300.00000	95.60825	730.31959	95.60825
13350.00000	96.58293	728.20484	96.58293
13400.00000	97.66008	731.56432	97.66008
13450.00000	98.27957	740.48687	98.27957
13500.00000	97.81012	753.40178	97.81012
13550.00000	96.60341	759.10148	96.60341
13600.00000	94.75703	761.31379	94.75703
13650.00000	93.10549	758.54641	93.10549
13700.00000	91.70992	752.84172	91.70992
13750.00000	90.80395	743.85364	90.80395
13800.00000	90.44123	735.28708	90.44123
13850.00000	90.31332	725.99416	90.31332
13900.00000	90.47437	716.13874	90.47437
13950.00000	91.26589	709.06180	91.26589
14000.00000	92.43021	703.93656	92.43021
14050.00000	94.05324	704.06262	94.05324
14100.00000	95.83966	706.82994	95.83966
14150.00000	96.92190	720.00898	96.92190
14200.00000	96.77592	735.22803	96.77592
14250.00000	95.24098	747.36603	95.24098
14300.00000	93.56529	751.81684	93.56529
14350.00000	92.09593	750.89832	92.09593
14400.00000	91.11030	748.20957	91.11030
14450.00000	90.35637	744.65915	90.35637
14500.00000	90.03309	739.76681	90.03309
14550.00000	89.94346	733.32004	89.94346
14600.00000	90.04857	729.66113	90.04857
14650.00000	90.48967	725.41723	90.48967
14700.00000	90.99534	720.67578	90.99534
14750.00000	91.84636	717.41894	91.84636
14800.00000	92.59987	716.40280	92.59987
14850.00000	93.65096	717.02303	93.65096
14900.00000	94.59055	719.11975	94.59055
14950.00000	95.10022	724.07011	95.10022
15000.00000	95.33861	729.47318	95.33861
15050.00000	95.15294	734.14305	95.15294
15100.00000	94.76520	735.03108	94.76520
15150.00000	94.39421	734.56578	94.39421
15200.00000	94.07971	732.79352	94.07971
15250.00000	93.89254	730.12212	93.89254
15300.00000	93.89704	726.81551	93.89704
15350.00000	94.17682	723.60905	94.17682
15400.00000	94.45173	719.01351	94.45173
15450.00000	94.77986	714.27331	94.77986
15500.00000	95.46559	711.40845	95.46559
15550.00000	95.98790	708.90519	95.98790
15600.00000	96.57570	707.50560	96.57570
15650.00000	97.11395	706.72905	97.11395
15700.00000	97.37407	706.60123	97.37407
15750.00000	97.61087	706.50965	97.61087
15800.00000	97.60407	706.42074	97.60407
15850.00000	97.58386	705.94828	97.58386
15900.00000	97.38399	704.37557	97.38399
15950.00000	97.22184	701.67579	97.22184
16000.00000	97.24480	699.53160	97.24480
16050.00000	97.23623	696.74374	97.23623
16100.00000	97.34417	694.43214	97.34417
16150.00000	97.62874	691.49121	97.62874
16200.00000	97.94509	689.39311	97.94509
16250.00000	98.20366	686.31237	98.20366
16300.00000	98.60581	684.80661	98.60581
16350.00000	98.90824	683.18040	98.90824
16400.00000	99.13580	681.83670	99.13580
16450.00000	99.41260	680.70256	99.41260
16500.00000	99.57594	678.76088	99.57594
16550.00000	99.69398	677.27724	99.69398
16600.00000	99.78887	674.97067	99.78887
16650.00000	99.80840	672.25542	99.80840
16700.00000	99.87108	669.45531	99.87108
16750.00000	99.93529	666.71737	99.93529
16800.00000	100.01304	663.63972	100.01304
16850.00000	100.17462	661.37472	100.17462
16900.00000	100.32538	659.14743	100.32538
16950.00000	100.47381	656.76194	100.47381
17000.00000	100.60828	654.52548	100.60828
17050.00000	100.72848	653.02553	100.72848
17100.00000	100.89045	651.12630	100.89045
17150.00000	100.95710	649.16570	100.95710
17200.00000	101.01945	647.49129	101.01945
17250.00000	101.08034	645.12386	101.08034
17300.00000	101.15883	642.73275	101.15883
17350.00000	101.19036	640.26972	101.19036
17400.00000	101.26989	637.97809	101.26989
17450.00000	101.39217	635.75711	101.39217
17500.00000	101.54922	633.42804	101.54922
17550.00000	101.67272	630.91904	101.67272
17600.00000	101.81445	629.06350	101.81445
17650.00000	101.96869	627.35436	101.96869
17700.00000	102.13899	625.09640	102.13899
17750.00000	102.25496	622.60492	102.25496
17800.00000	102.32614	620.69519	102.32614
17850.00000	102.44056	618.74086	102.44056
17900.00000	102.53809	616.54147	102.53809
17950.00000	102.61235	614.60479	102.61235
18000.00000	102.77626	612.37878	102.77626
18050.00000	102.89862	609.81964	102.89862
18100.00000	103.01766	607.50046	103.01766
18150.00000	103.16726	604.87505	103.16726
18200.00000	103.27485	602.32878	103.27485
18250.00000	103.41702	599.90449	103.41702
18300.00000	103.53417	597.24823	103.53417
18350.00000	103.61998	594.54757	103.61998
18400.00000	103.72615	592.06459	103.72615
18450.00000	103.81611	589.60985	103.81611
18500.00000	103.93949	587.21129	103.93949
18550.00000	104.06095	584.37705	104.06095
18600.00000	104.11853	581.88271	104.11853
18650.00000	104.23769	579.12080	104.23769
18700.00000	104.30543	576.58200	104.30543
18750.00000	104.37058	574.04294	104.37058
18800.00000	104.43254	571.26582	104.43254
18850.00000	104.52700	568.91007	104.52700
18900.00000	104.54872	566.24354	104.54872
18950.00000	104.60643	563.32620	104.60643
19000.00000	104.62382	560.83019	104.62382
19050.00000	104.67920	558.20334	104.67920
19100.00000	104.70674	555.62186	104.70674
19150.00000	104.78051	553.19965	104.78051
19200.00000	104.83545	550.45756	104.83545
19250.00000	104.87169	548.17330	104.87169
19300.00000	104.94042	545.68646	104.94042
19350.00000	104.99080	542.96185	104.99080
19400.00000	105.01010	540.66645	105.01010
19450.00000	105.03069	537.93694	105.03069
19500.00000	105.07915	535.48713	105.07915
19550.00000	105.12926	533.15565	105.12926
19600.00000	105.15754	530.62313	105.15754
19650.00000	105.19597	528.18601	105.19597
19700.00000	105.25223	525.66671	105.25223
19750.00000	105.29618	523.40871	105.29618
19800.00000	105.36530	521.16930	105.36530
19850.00000	105.39320	518.46832	105.39320
19900.00000	105.46805	515.96283	105.46805
19950.00000	105.48468	513.67299	105.48468
20000.00000	105.52038	510.84553	105.52038
20050.00000	105.58446	508.50431	105.58446
20100.00000	105.64925	506.01402	105.64925
20150.00000	105.71889	503.23305	105.71889
20200.00000	105.79417	500.57426	105.79417
20250.00000	105.82507	498.22392	105.82507
20300.00000	105.87454	495.45092	105.87454
20350.00000	105.91465	492.83637	105.91465
20400.00000	105.94419	490.21496	105.94419
20450.00000	105.99803	487.54394	105.99803
20500.00000	106.04600	484.84944	106.04600
20550.00000	106.07788	481.97099	106.07788
20600.00000	106.10439	479.14845	106.10439
20650.00000	106.16356	476.33817	106.16356
20700.00000	106.20396	473.71387	106.20396
20750.00000	106.21667	470.87370	106.21667
20800.00000	106.20587	468.14549	106.20587
20850.00000	106.21241	464.92398	106.21241
20900.00000	106.20517	462.43017	106.20517
20950.00000	106.21651	459.39493	106.21651
21000.00000	106.24284	456.32736	106.24284
21050.00000	106.21505	453.39374	106.21505
21100.00000	106.20636	450.65828	106.20636
21150.00000	106.21538	448.07431	106.21538
21200.00000	106.16341	445.19093	106.16341
21250.00000	106.09990	442.30491	106.09990
21300.00000	106.04763	439.23864	106.04763
21350.00000	105.99299	436.40833	105.99299
21400.00000	105.94712	433.45248	105.94712
21450.00000	105.92632	430.66226	105.92632
21500.00000	105.90992	428.08070	105.90992
21550.00000	105.82906	425.45122	105.82906
21600.00000	105.74080	422.56817	105.74080
21650.00000	105.66500	419.88137	105.66500
21700.00000	105.55395	417.13082	105.55395
21750.00000	105.47867	414.49045	105.47867
21800.00000	105.36611	411.65951	105.36611
21850.00000	105.32073	409.26818	105.32073
21900.00000	105.19685	406.86551	105.19685
21950.00000	105.12552	404.33006	105.12552
22000.00000	104.94566	401.98625	104.94566
22050.00000	104.84433	399.90711	104.84433
22100.00000	104.76135	398.04639	104.76135
22150.00000	104.64716	395.94698	104.64716
22200.00000	104.57666	393.49552	104.57666
22250.00000	104.55430	391.41635	104.55430
22300.00000	104.50984	389.26256	104.50984
22350.00000	104.44217	387.08318	104.44217
22400.00000	104.39824	384.73379	104.39824
22450.00000	104.35871	382.62375	104.35871
22500.00000	104.29393	380.62718	104.29393
22550.00000	104.27323	378.33084	104.27323
22600.00000	104.22984	376.32247	104.22984
22650.00000	104.16266	374.01761	104.16266
22700.00000	104.11702	372.07338	104.11702
22750.00000	104.09049	369.58929	104.09049
22800.00000	104.04914	367.35044	104.04914
22850.00000	104.01048	365.01094	104.01048
22900.00000	104.00174	362.81669	104.00174
22950.00000	103.98736	360.62125	103.98736
23000.00000	103.94822	358.34554	103.94822
23050.00000	103.86990	356.02909	103.86990
23100.00000	103.83694	353.66570	103.83694
23150.00000	103.72509	351.19799	103.72509
23200.00000	103.69008	348.62295	103.69008
