---ACOUSTIC CALIBRATION---
Filename: C:\Data\CL0809 DATA\CL08095\RightPrimary.calib
Date: 8/9/2019 4:08:15 PM
Format: 4
Probe Tube Correction File: C:\Data\Probe Tube Calibrations\74_ProbeTube.calib
Experiment VIs: 2128
EPL_CFTS.exe V15.0.1f5 (2015)
DAQmx V15.1

Attenuation (dB): 40.000000
Min Freq (Hz): 50.000000
Max Freq (Hz): 99950.000000
Freq Step (Hz): 50.000000
Sample Rate (Hz): 200000.000000
[Smoothing]
Method=None
MA.Iterations=0
MA.Length=0
Loess.Length=0
Loess.Type=Linear
Loess.Robust=FALSE


Freq(Hz)	Mag(dB)	Phase(deg)	Unsmoothed(dB)

50.00000	102.83661	310.21469	102.83661
100.00000	72.39858	432.38371	72.39858
150.00000	68.53166	726.31676	68.53166
200.00000	67.14541	775.66811	67.14541
250.00000	67.73157	931.08728	67.73157
300.00000	68.13628	1178.19274	68.13628
350.00000	66.93271	1336.81117	66.93271
400.00000	59.86993	1423.56443	59.86993
450.00000	66.62917	1433.51663	66.62917
500.00000	64.31504	1609.17577	64.31504
550.00000	74.93920	1537.12616	74.93920
600.00000	75.12045	1521.97543	75.12045
650.00000	78.20120	1488.42998	78.20120
700.00000	81.99649	1450.43919	81.99649
750.00000	80.19389	1466.66236	80.19389
800.00000	81.98078	1445.86121	81.98078
850.00000	78.75294	1434.62166	78.75294
900.00000	79.19297	1450.30907	79.19297
950.00000	82.79815	1445.78935	82.79815
1000.00000	83.96814	1445.30873	83.96814
1050.00000	88.18635	1439.05036	88.18635
1100.00000	89.98870	1416.06960	89.98870
1150.00000	90.83661	1407.56895	90.83661
1200.00000	91.82359	1394.38996	91.82359
1250.00000	92.36897	1384.44021	92.36897
1300.00000	93.35118	1380.59983	93.35118
1350.00000	95.27378	1365.34543	95.27378
1400.00000	94.53932	1351.32235	94.53932
1450.00000	95.27402	1344.06969	95.27402
1500.00000	94.86932	1333.54926	94.86932
1550.00000	95.04111	1331.28431	95.04111
1600.00000	95.96711	1326.57304	95.96711
1650.00000	96.55073	1321.09910	96.55073
1700.00000	100.25537	1308.45651	100.25537
1750.00000	97.55760	1286.29305	97.55760
1800.00000	96.47637	1280.27224	96.47637
1850.00000	96.53728	1276.05773	96.53728
1900.00000	96.32721	1268.99361	96.32721
1950.00000	95.65612	1265.11651	95.65612
2000.00000	95.66895	1264.08189	95.66895
2050.00000	95.89625	1258.49358	95.89625
2100.00000	95.99072	1255.88752	95.99072
2150.00000	96.67509	1246.45269	96.67509
2200.00000	95.89955	1236.95441	95.89955
2250.00000	95.27443	1233.15944	95.27443
2300.00000	95.08931	1230.67587	95.08931
2350.00000	94.98408	1224.19332	94.98408
2400.00000	95.13568	1220.58362	95.13568
2450.00000	94.61755	1209.26226	94.61755
2500.00000	93.37361	1209.08073	93.37361
2550.00000	93.48356	1204.28824	93.48356
2600.00000	92.81668	1200.54127	92.81668
2650.00000	92.30758	1198.96082	92.30758
2700.00000	92.19125	1195.58061	92.19125
2750.00000	91.25881	1191.64092	91.25881
2800.00000	91.05737	1191.87550	91.05737
2850.00000	90.70891	1186.95794	90.70891
2900.00000	90.10124	1188.29528	90.10124
2950.00000	90.26811	1186.00536	90.26811
3000.00000	89.92466	1182.92644	89.92466
3050.00000	89.28559	1181.65174	89.28559
3100.00000	89.23314	1180.09723	89.23314
3150.00000	88.44707	1176.45247	88.44707
3200.00000	88.03704	1177.73317	88.03704
3250.00000	87.85215	1173.84369	87.85215
3300.00000	87.20017	1174.78542	87.20017
3350.00000	86.80523	1174.58410	86.80523
3400.00000	86.29399	1172.24248	86.29399
3450.00000	85.04548	1172.56670	85.04548
3500.00000	84.79230	1173.88358	84.79230
3550.00000	83.86606	1172.65871	83.86606
3600.00000	82.64478	1176.32805	82.64478
3650.00000	81.47743	1180.19717	81.47743
3700.00000	79.93570	1188.78856	79.93570
3750.00000	79.20811	1204.01684	79.20811
3800.00000	79.65031	1217.32336	79.65031
3850.00000	80.05611	1229.02859	80.05611
3900.00000	81.82873	1232.33938	81.82873
3950.00000	82.12327	1240.95999	82.12327
4000.00000	83.46943	1251.47708	83.46943
4050.00000	84.69256	1259.25234	84.69256
4100.00000	86.43518	1263.85155	86.43518
4150.00000	89.00136	1266.16651	89.00136
4200.00000	90.92386	1264.72847	90.92386
4250.00000	91.76413	1256.07081	91.76413
4300.00000	92.78657	1256.34170	92.78657
4350.00000	94.02254	1255.39770	94.02254
4400.00000	95.44188	1251.48333	95.44188
4450.00000	96.39852	1244.91779	96.39852
4500.00000	97.01854	1239.00833	97.01854
4550.00000	97.26903	1236.28838	97.26903
4600.00000	97.88031	1235.64827	97.88031
4650.00000	98.80117	1234.86708	98.80117
4700.00000	99.83095	1233.18753	99.83095
4750.00000	100.92099	1230.38931	100.92099
4800.00000	102.04357	1227.07446	102.04357
4850.00000	103.13890	1223.05552	103.13890
4900.00000	104.31176	1218.16263	104.31176
4950.00000	105.51528	1212.94246	105.51528
5000.00000	106.79045	1206.89677	106.79045
5050.00000	108.20312	1199.81253	108.20312
5100.00000	109.84418	1191.09898	109.84418
5150.00000	111.83002	1179.03331	111.83002
5200.00000	114.22945	1158.43450	114.22945
5250.00000	115.47878	1119.21445	115.47878
5300.00000	111.70421	1078.18341	111.70421
5350.00000	105.95051	1065.29758	105.95051
5400.00000	101.58631	1070.68533	101.58631
5450.00000	98.62545	1080.32682	98.62545
5500.00000	96.03334	1094.85236	96.03334
5550.00000	95.11300	1119.56055	95.11300
5600.00000	96.76886	1138.47433	96.76886
5650.00000	99.08011	1144.62841	99.08011
5700.00000	100.69074	1141.95299	100.69074
5750.00000	101.53582	1138.27963	101.53582
5800.00000	101.97444	1136.46343	101.97444
5850.00000	102.43455	1135.79291	102.43455
5900.00000	102.98378	1135.32767	102.98378
5950.00000	103.66499	1135.11964	103.66499
6000.00000	104.44259	1134.08666	104.44259
6050.00000	105.23885	1132.63058	105.23885
6100.00000	106.10480	1130.59123	106.10480
6150.00000	106.95774	1127.85459	106.95774
6200.00000	107.84854	1124.85952	107.84854
6250.00000	108.77317	1121.25668	108.77317
6300.00000	109.77604	1116.70522	109.77604
6350.00000	110.73974	1111.15474	110.73974
6400.00000	111.71020	1104.66053	111.71020
6450.00000	112.58363	1096.96115	112.58363
6500.00000	113.33900	1088.51791	113.33900
6550.00000	113.98550	1079.28194	113.98550
6600.00000	114.49088	1069.58807	114.49088
6650.00000	114.85732	1059.25669	114.85732
6700.00000	115.03026	1048.41961	115.03026
6750.00000	114.95392	1037.43132	114.95392
6800.00000	114.61417	1027.10654	114.61417
6850.00000	114.09836	1017.91769	114.09836
6900.00000	113.48273	1010.05193	113.48273
6950.00000	112.87191	1003.35726	112.87191
7000.00000	112.24017	997.47228	112.24017
7050.00000	111.67073	992.56460	111.67073
7100.00000	111.15014	987.96513	111.15014
7150.00000	110.66353	983.88507	110.66353
7200.00000	110.23712	979.96401	110.23712
7250.00000	109.84093	976.24895	109.84093
7300.00000	109.47094	972.38002	109.47094
7350.00000	109.08972	968.85428	109.08972
7400.00000	108.78739	965.26333	108.78739
7450.00000	108.44473	961.51615	108.44473
7500.00000	108.10521	958.09650	108.10521
7550.00000	107.76181	954.45283	107.76181
7600.00000	107.41064	951.00253	107.41064
7650.00000	107.00113	947.64612	107.00113
7700.00000	106.67059	944.96892	106.67059
7750.00000	106.27869	941.73362	106.27869
7800.00000	105.87201	939.65313	105.87201
7850.00000	105.54416	937.16595	105.54416
7900.00000	105.18320	935.00047	105.18320
7950.00000	104.85792	932.97579	104.85792
8000.00000	104.51747	931.45156	104.51747
8050.00000	104.28777	929.61409	104.28777
8100.00000	103.96796	927.97761	103.96796
8150.00000	103.80067	926.70259	103.80067
8200.00000	103.58790	924.92498	103.58790
8250.00000	103.46641	923.60964	103.46641
8300.00000	103.30919	922.02615	103.30919
8350.00000	103.26591	920.66878	103.26591
8400.00000	103.14471	918.54442	103.14471
8450.00000	103.03515	917.31405	103.03515
8500.00000	103.01189	915.49619	103.01189
8550.00000	102.97577	913.83471	102.97577
8600.00000	102.94559	912.01785	102.94559
8650.00000	102.93251	910.36774	102.93251
8700.00000	102.95812	908.07766	102.95812
8750.00000	102.91518	905.94724	102.91518
8800.00000	102.97333	904.06963	102.97333
8850.00000	103.00750	901.36244	103.00750
8900.00000	103.00566	899.03912	103.00566
8950.00000	103.05952	896.49422	103.05952
9000.00000	103.09241	893.80309	103.09241
9050.00000	103.15389	890.40275	103.15389
9100.00000	103.10931	888.01809	103.10931
9150.00000	103.21994	884.81767	103.21994
9200.00000	103.23004	881.46400	103.23004
9250.00000	103.21120	878.06224	103.21120
9300.00000	103.17900	874.54730	103.17900
9350.00000	103.17728	870.95091	103.17728
9400.00000	103.03247	866.80548	103.03247
9450.00000	102.90701	863.58493	102.90701
9500.00000	102.82097	859.36054	102.82097
9550.00000	102.56555	855.42572	102.56555
9600.00000	102.34276	852.02387	102.34276
9650.00000	102.13272	848.47759	102.13272
9700.00000	101.86395	844.86360	101.86395
9750.00000	101.46812	841.44043	101.46812
9800.00000	101.07127	838.95927	101.07127
9850.00000	100.60283	836.25333	100.60283
9900.00000	100.00515	835.61623	100.00515
9950.00000	99.52674	836.57166	99.52674
10000.00000	99.60531	839.92383	99.60531
10050.00000	100.17800	838.73352	100.17800
10100.00000	100.43333	834.98997	100.43333
10150.00000	100.45975	831.00230	100.45975
10200.00000	100.33494	827.42894	100.33494
10250.00000	100.16598	825.13479	100.16598
10300.00000	100.08165	822.76835	100.08165
10350.00000	99.98656	820.51062	99.98656
10400.00000	99.84665	818.16358	99.84665
10450.00000	99.79261	816.21701	99.79261
10500.00000	99.82661	813.76815	99.82661
10550.00000	99.76615	811.54162	99.76615
10600.00000	99.85754	808.86073	99.85754
10650.00000	99.87531	806.44700	99.87531
10700.00000	99.93331	803.46575	99.93331
10750.00000	99.96795	800.48601	99.96795
10800.00000	100.00800	797.12366	100.00800
10850.00000	100.11183	793.69562	100.11183
10900.00000	100.13510	790.10281	100.13510
10950.00000	100.14993	786.41682	100.14993
11000.00000	100.17695	782.56369	100.17695
11050.00000	100.13488	778.42166	100.13488
11100.00000	100.13421	774.38174	100.13421
11150.00000	100.05496	769.93305	100.05496
11200.00000	99.96839	765.78636	99.96839
11250.00000	99.80729	760.97148	99.80729
11300.00000	99.64983	756.67478	99.64983
11350.00000	99.51029	752.03660	99.51029
11400.00000	99.26012	747.24476	99.26012
11450.00000	99.01335	742.41798	99.01335
11500.00000	98.75767	737.80422	98.75767
11550.00000	98.48419	732.98684	98.48419
11600.00000	98.13505	728.32323	98.13505
11650.00000	97.79320	723.73528	97.79320
11700.00000	97.48985	718.98765	97.48985
11750.00000	97.10072	714.62513	97.10072
11800.00000	96.78132	710.28659	96.78132
11850.00000	96.42044	705.99675	96.42044
11900.00000	95.98730	701.96192	95.98730
11950.00000	95.64494	697.90554	95.64494
12000.00000	95.21589	693.99564	95.21589
12050.00000	94.78783	690.83793	94.78783
12100.00000	94.35581	686.81800	94.35581
12150.00000	93.93058	683.14566	93.93058
12200.00000	93.54396	679.31230	93.54396
12250.00000	93.12004	675.72642	93.12004
12300.00000	92.64891	671.52370	92.64891
12350.00000	92.15446	667.41981	92.15446
12400.00000	91.62442	662.88130	91.62442
12450.00000	91.37680	658.43673	91.37680
12500.00000	91.00698	654.17162	91.00698
12550.00000	90.57048	649.86715	90.57048
12600.00000	90.30826	644.53474	90.30826
12650.00000	89.97697	640.24376	89.97697
12700.00000	89.62279	634.42129	89.62279
12750.00000	89.30399	629.39343	89.30399
12800.00000	89.07846	624.49370	89.07846
12850.00000	88.77665	618.83593	88.77665
12900.00000	88.55772	612.76880	88.55772
12950.00000	88.48335	606.78465	88.48335
13000.00000	88.26376	600.01569	88.26376
13050.00000	88.27080	592.70329	88.27080
13100.00000	88.22430	585.36004	88.22430
13150.00000	88.50066	578.68183	88.50066
13200.00000	88.85520	569.73296	88.85520
13250.00000	89.60940	560.22379	89.60940
13300.00000	90.55886	554.76699	90.55886
13350.00000	91.72313	549.04017	91.72313
13400.00000	93.16672	547.57371	93.16672
13450.00000	94.27936	551.56417	94.27936
13500.00000	94.26101	561.46009	94.26101
13550.00000	93.53801	562.46430	93.53801
13600.00000	92.30055	561.30687	92.30055
13650.00000	91.15322	554.71436	91.15322
13700.00000	90.33337	545.62348	90.33337
13750.00000	89.87547	532.53637	89.87547
13800.00000	90.03010	520.27722	90.03010
13850.00000	90.53969	506.95309	90.53969
13900.00000	91.25209	492.81185	91.25209
13950.00000	92.51827	481.54703	92.51827
14000.00000	94.10368	471.95593	94.10368
14050.00000	96.11434	467.10950	96.11434
14100.00000	98.35176	465.50429	98.35176
14150.00000	99.98930	473.64338	99.98930
14200.00000	100.10202	484.42414	100.10202
14250.00000	98.95272	492.09825	98.95272
14300.00000	97.56563	492.59844	97.56563
14350.00000	96.41276	487.19117	96.41276
14400.00000	95.62531	481.47392	95.62531
14450.00000	95.04641	472.97460	95.04641
14500.00000	94.80714	464.12327	94.80714
14550.00000	94.82155	454.66252	94.82155
14600.00000	95.00311	447.19776	95.00311
14650.00000	95.38890	439.15229	95.38890
14700.00000	96.07413	430.93243	96.07413
14750.00000	96.83024	424.55538	96.83024
14800.00000	97.65230	420.28024	97.65230
14850.00000	98.71790	418.05415	98.71790
14900.00000	99.61219	417.75580	99.61219
14950.00000	100.12667	419.67322	100.12667
15000.00000	100.34492	421.36204	100.34492
15050.00000	100.15471	423.62697	100.15471
15100.00000	99.82632	423.10509	99.82632
15150.00000	99.34147	420.60252	99.34147
15200.00000	99.08261	417.17328	99.08261
15250.00000	98.75156	412.91049	98.75156
15300.00000	98.64504	407.71857	98.64504
15350.00000	98.80980	401.71803	98.80980
15400.00000	99.02456	396.01788	99.02456
15450.00000	99.31112	390.19633	99.31112
15500.00000	99.82576	385.80368	99.82576
15550.00000	100.28833	382.04026	100.28833
15600.00000	100.82227	379.07936	100.82227
15650.00000	101.37447	377.12104	101.37447
15700.00000	101.59236	375.49241	101.59236
15750.00000	101.87340	374.51815	101.87340
15800.00000	101.87682	373.23274	101.87682
15850.00000	101.87522	371.68182	101.87522
15900.00000	101.72214	368.41635	101.72214
15950.00000	101.53042	365.07774	101.53042
16000.00000	101.43605	361.17006	101.43605
16050.00000	101.46734	357.24063	101.46734
16100.00000	101.52221	353.34288	101.52221
16150.00000	101.70112	349.06675	101.70112
16200.00000	101.84558	345.52499	101.84558
16250.00000	102.09078	341.63462	102.09078
16300.00000	102.36085	338.50639	102.36085
16350.00000	102.62339	336.21234	102.62339
16400.00000	102.80694	334.07800	102.80694
16450.00000	102.99394	331.95488	102.99394
16500.00000	103.04384	329.33387	103.04384
16550.00000	103.06008	326.89248	103.06008
16600.00000	103.11310	323.83527	103.11310
16650.00000	103.12193	320.54041	103.12193
16700.00000	103.09789	316.89174	103.09789
16750.00000	103.04677	313.45105	103.04677
16800.00000	103.08316	310.20832	103.08316
16850.00000	103.20984	306.49645	103.20984
16900.00000	103.31804	303.45058	103.31804
16950.00000	103.37771	300.32206	103.37771
17000.00000	103.46435	297.41192	103.46435
17050.00000	103.53138	294.97664	103.53138
17100.00000	103.57351	292.59546	103.57351
17150.00000	103.62110	290.05896	103.62110
17200.00000	103.56121	287.34049	103.56121
17250.00000	103.53610	284.26790	103.53610
17300.00000	103.46791	281.47056	103.46791
17350.00000	103.42477	278.74769	103.42477
17400.00000	103.46189	275.88879	103.46189
17450.00000	103.51581	272.69043	103.51581
17500.00000	103.47037	270.10370	103.47037
17550.00000	103.49395	267.52729	103.49395
17600.00000	103.54304	265.36508	103.54304
17650.00000	103.64924	262.77504	103.64924
17700.00000	103.69558	260.40320	103.69558
17750.00000	103.69255	258.24707	103.69255
17800.00000	103.73647	256.02024	103.73647
17850.00000	103.72160	253.65725	103.72160
17900.00000	103.75774	251.59601	103.75774
17950.00000	103.81480	249.22842	103.81480
18000.00000	103.91755	246.86840	103.91755
18050.00000	103.94073	244.23561	103.94073
18100.00000	104.03053	241.80596	104.03053
18150.00000	104.11256	238.81173	104.11256
18200.00000	104.17705	236.12908	104.17705
18250.00000	104.28089	233.39355	104.28089
18300.00000	104.29586	230.55446	104.29586
18350.00000	104.34332	227.97563	104.34332
18400.00000	104.36927	225.22591	104.36927
18450.00000	104.43601	222.57972	104.43601
18500.00000	104.50955	220.07168	104.50955
18550.00000	104.57714	217.17594	104.57714
18600.00000	104.57320	214.26379	104.57320
18650.00000	104.62341	211.48773	104.62341
18700.00000	104.65785	208.82761	104.65785
18750.00000	104.67242	206.02882	104.67242
18800.00000	104.67215	203.29284	104.67215
18850.00000	104.68331	200.63117	104.68331
18900.00000	104.64520	197.90277	104.64520
18950.00000	104.63401	195.12302	104.63401
19000.00000	104.61588	192.39338	104.61588
19050.00000	104.60518	189.96263	104.60518
19100.00000	104.64282	187.15073	104.64282
19150.00000	104.62391	184.77207	104.62391
19200.00000	104.62551	182.17964	104.62551
19250.00000	104.61306	179.83312	104.61306
19300.00000	104.65825	177.34680	104.65825
19350.00000	104.66811	174.71751	104.66811
19400.00000	104.63438	172.23952	104.63438
19450.00000	104.63337	169.53997	104.63337
19500.00000	104.64752	167.22460	104.64752
19550.00000	104.67706	164.83846	104.67706
19600.00000	104.64249	162.22058	104.64249
19650.00000	104.66433	159.71606	104.66433
19700.00000	104.67391	157.22341	104.67391
19750.00000	104.70528	154.88640	104.70528
19800.00000	104.72231	152.53253	104.72231
19850.00000	104.71907	149.75815	104.71907
19900.00000	104.72316	147.43915	104.72316
19950.00000	104.72579	144.99825	104.72579
20000.00000	104.73032	142.09486	104.73032
20050.00000	104.74569	139.80292	104.74569
20100.00000	104.78778	137.29535	104.78778
20150.00000	104.78672	134.47182	104.78672
20200.00000	104.79605	131.86511	104.79605
20250.00000	104.83035	129.53290	104.83035
20300.00000	104.81407	127.00575	104.81407
20350.00000	104.82080	124.42743	104.82080
20400.00000	104.82114	121.87344	104.82114
20450.00000	104.83489	119.42543	104.83489
20500.00000	104.84170	116.80374	104.84170
20550.00000	104.83234	114.09555	104.83234
20600.00000	104.82885	111.46383	104.82885
20650.00000	104.85601	108.84092	104.85601
20700.00000	104.88926	106.54604	104.88926
20750.00000	104.86360	103.94528	104.86360
20800.00000	104.84517	101.31661	104.84517
20850.00000	104.82767	98.51597	104.82767
20900.00000	104.81240	95.96412	104.81240
20950.00000	104.82616	93.26824	104.82616
21000.00000	104.84671	90.61763	104.84671
21050.00000	104.83509	87.93680	104.83509
21100.00000	104.84155	85.10269	104.84155
21150.00000	104.81755	82.94609	104.81755
21200.00000	104.81780	80.39015	104.81780
21250.00000	104.76950	77.68323	104.76950
21300.00000	104.76473	74.82868	104.76473
21350.00000	104.76030	72.28711	104.76030
21400.00000	104.74865	69.29658	104.74865
21450.00000	104.76518	66.83220	104.76518
21500.00000	104.78188	64.33249	104.78188
21550.00000	104.78544	61.49581	104.78544
21600.00000	104.77350	58.67303	104.77350
21650.00000	104.76887	56.19003	104.76887
21700.00000	104.70769	52.85411	104.70769
21750.00000	104.69824	49.86279	104.69824
21800.00000	104.68109	46.88200	104.68109
21850.00000	104.64980	44.09565	104.64980
21900.00000	104.58760	41.12504	104.58760
21950.00000	104.57802	38.12899	104.57802
22000.00000	104.44382	35.27104	104.44382
22050.00000	104.37575	32.74480	104.37575
22100.00000	104.29702	29.98512	104.29702
22150.00000	104.21320	27.15302	104.21320
22200.00000	104.15659	24.08956	104.15659
22250.00000	104.13324	21.35937	104.13324
22300.00000	104.01116	18.77082	104.01116
22350.00000	103.91788	15.58427	103.91788
22400.00000	103.81865	12.88020	103.81865
22450.00000	103.73806	10.27628	103.73806
22500.00000	103.65043	 7.43683	103.65043
22550.00000	103.52426	 4.66998	103.52426
22600.00000	103.38327	 1.97306	103.38327
22650.00000	103.26719	-0.39378	103.26719
22700.00000	103.11129	-2.89769	103.11129
22750.00000	103.02061	-5.92206	103.02061
22800.00000	102.87622	-8.38135	102.87622
22850.00000	102.74726	-11.13156	102.74726
22900.00000	102.70055	-13.31548	102.70055
22950.00000	102.58868	-15.87364	102.58868
23000.00000	102.42958	-18.47311	102.42958
23050.00000	102.29987	-20.83895	102.29987
23100.00000	102.16333	-23.25257	102.16333
23150.00000	102.01672	-25.46563	102.01672
