---ACOUSTIC CALIBRATION---
Filename: C:\Data\CL0809 DATA\CL0809400\RightSecondary.calib
Date: 8/9/2019 1:48:05 PM
Format: 4
Probe Tube Correction File: C:\Data\Probe Tube Calibrations\74_ProbeTube.calib
Experiment VIs: 2128
EPL_CFTS.exe V15.0.1f5 (2015)
DAQmx V15.1

Attenuation (dB): 40.000000
Min Freq (Hz): 50.000000
Max Freq (Hz): 99950.000000
Freq Step (Hz): 50.000000
Sample Rate (Hz): 200000.000000
[Smoothing]
Method=None
MA.Iterations=0
MA.Length=0
Loess.Length=0
Loess.Type=Linear
Loess.Robust=FALSE


Freq(Hz)	Mag(dB)	Phase(deg)	Unsmoothed(dB)

50.00000	90.86866	156.62975	90.86866
100.00000	65.72869	-3.55391	65.72869
150.00000	77.22267	127.42970	77.22267
200.00000	66.93765	120.79803	66.93765
250.00000	63.28138	505.54125	63.28138
300.00000	71.12370	523.91259	71.12370
350.00000	68.92964	635.28480	68.92964
400.00000	51.45036	697.91344	51.45036
450.00000	71.03025	769.29116	71.03025
500.00000	74.10272	837.26970	74.10272
550.00000	76.40657	805.85417	76.40657
600.00000	79.55310	759.72847	79.55310
650.00000	84.82742	734.31829	84.82742
700.00000	84.29766	753.22393	84.29766
750.00000	89.25395	707.35422	89.25395
800.00000	89.46384	690.93738	89.46384
850.00000	89.36808	682.26187	89.36808
900.00000	90.03140	670.71294	90.03140
950.00000	90.91279	657.80379	90.91279
1000.00000	91.41910	651.35154	91.41910
1050.00000	91.19526	633.69155	91.19526
1100.00000	90.06968	627.66700	90.06968
1150.00000	89.69598	626.22545	89.69598
1200.00000	88.71922	629.51393	88.71922
1250.00000	89.86997	636.71247	89.86997
1300.00000	91.12450	632.95622	91.12450
1350.00000	91.58258	632.87997	91.58258
1400.00000	92.73610	632.44885	92.73610
1450.00000	93.49883	630.14017	93.49883
1500.00000	94.99734	629.40236	94.99734
1550.00000	96.38769	622.13638	96.38769
1600.00000	97.54055	617.43196	97.54055
1650.00000	98.74121	613.26024	98.74121
1700.00000	102.88119	596.11859	102.88119
1750.00000	99.97146	575.51901	99.97146
1800.00000	99.77017	569.91877	99.77017
1850.00000	99.48645	562.10131	99.48645
1900.00000	99.37669	555.46405	99.37669
1950.00000	98.75644	548.90190	98.75644
2000.00000	97.86850	543.84729	97.86850
2050.00000	96.94154	545.03122	96.94154
2100.00000	97.30105	551.07517	97.30105
2150.00000	98.55206	547.15679	98.55206
2200.00000	98.82425	537.49616	98.82425
2250.00000	98.25674	531.61616	98.25674
2300.00000	97.88073	530.84894	97.88073
2350.00000	97.87884	527.23090	97.87884
2400.00000	97.87640	524.92699	97.87640
2450.00000	97.69122	521.20283	97.69122
2500.00000	97.14289	521.28986	97.14289
2550.00000	97.26669	521.35253	97.26669
2600.00000	97.47627	520.27853	97.47627
2650.00000	97.57553	519.94370	97.57553
2700.00000	97.81140	518.22260	97.81140
2750.00000	98.00169	516.89584	98.00169
2800.00000	98.22488	514.72245	98.22488
2850.00000	98.50803	513.03417	98.50803
2900.00000	98.78207	510.72184	98.78207
2950.00000	99.05589	508.53479	99.05589
3000.00000	99.32217	506.39207	99.32217
3050.00000	99.54605	503.73825	99.54605
3100.00000	99.77570	500.99331	99.77570
3150.00000	99.79248	498.42630	99.79248
3200.00000	99.94026	495.60139	99.94026
3250.00000	100.17554	493.55437	100.17554
3300.00000	100.19099	491.32036	100.19099
3350.00000	100.41912	489.70241	100.41912
3400.00000	100.51180	488.05806	100.51180
3450.00000	100.69364	487.27427	100.69364
3500.00000	100.87355	486.74206	100.87355
3550.00000	101.60278	484.71765	101.60278
3600.00000	101.70066	481.20324	101.70066
3650.00000	102.00336	480.75592	102.00336
3700.00000	102.23873	479.16440	102.23873
3750.00000	102.73923	476.50562	102.73923
3800.00000	103.55736	475.11456	103.55736
3850.00000	104.09695	466.34815	104.09695
3900.00000	104.48538	459.20886	104.48538
3950.00000	103.73117	456.38976	103.73117
4000.00000	103.39477	458.12861	103.39477
4050.00000	103.81582	459.66624	103.81582
4100.00000	104.52554	460.06386	104.52554
4150.00000	106.16454	457.29619	106.16454
4200.00000	107.14360	452.69800	107.14360
4250.00000	107.26556	440.10751	107.26556
4300.00000	107.39871	437.10149	107.39871
4350.00000	107.82453	432.31734	107.82453
4400.00000	108.16582	426.13749	108.16582
4450.00000	108.25741	419.13838	108.25741
4500.00000	108.36927	413.09908	108.36927
4550.00000	108.28072	407.88560	108.28072
4600.00000	108.33171	402.54511	108.33171
4650.00000	108.36290	397.78671	108.36290
4700.00000	108.35347	392.96859	108.35347
4750.00000	108.34927	388.33412	108.34927
4800.00000	108.38136	383.95474	108.38136
4850.00000	108.41728	379.17854	108.41728
4900.00000	108.45123	373.75031	108.45123
4950.00000	108.44640	368.57152	108.44640
5000.00000	108.38561	362.96305	108.38561
5050.00000	108.27192	357.24996	108.27192
5100.00000	108.07724	351.41848	108.07724
5150.00000	107.73987	345.64917	107.73987
5200.00000	107.16339	340.37463	107.16339
5250.00000	106.28127	339.58852	106.28127
5300.00000	106.75065	340.39055	106.75065
5350.00000	107.03863	334.23073	107.03863
5400.00000	106.85385	328.17078	106.85385
5450.00000	106.51910	323.31372	106.51910
5500.00000	106.21040	318.81732	106.21040
5550.00000	105.91432	314.92996	105.91432
5600.00000	105.57508	310.53492	105.57508
5650.00000	105.13266	307.03067	105.13266
5700.00000	104.72587	303.61090	104.72587
5750.00000	104.37171	300.66824	104.37171
5800.00000	104.01113	297.99374	104.01113
5850.00000	103.63310	295.27662	103.63310
5900.00000	103.28420	292.63001	103.28420
5950.00000	102.95820	290.32183	102.95820
6000.00000	102.63679	288.11143	102.63679
6050.00000	102.32255	285.67777	102.32255
6100.00000	102.00227	283.42574	102.00227
6150.00000	101.64108	281.20268	101.64108
6200.00000	101.28580	279.49169	101.28580
6250.00000	100.95656	277.86633	100.95656
6300.00000	100.64719	276.23541	100.64719
6350.00000	100.33263	274.82341	100.33263
6400.00000	100.02208	273.65100	100.02208
6450.00000	99.72531	272.78012	99.72531
6500.00000	99.45048	272.08630	99.45048
6550.00000	99.24798	271.90817	99.24798
6600.00000	99.15978	271.65259	99.15978
6650.00000	99.12122	271.08330	99.12122
6700.00000	99.16068	270.22675	99.16068
6750.00000	99.22104	268.79179	99.22104
6800.00000	99.24393	266.86754	99.24393
6850.00000	99.24116	264.28515	99.24116
6900.00000	99.16463	261.66200	99.16463
6950.00000	99.00482	259.13985	99.00482
7000.00000	98.80264	256.60131	98.80264
7050.00000	98.57279	254.32498	98.57279
7100.00000	98.33126	252.25601	98.33126
7150.00000	98.04496	250.33057	98.04496
7200.00000	97.72358	248.82020	97.72358
7250.00000	97.37888	247.78089	97.37888
7300.00000	97.05625	246.95428	97.05625
7350.00000	96.75669	246.76160	96.75669
7400.00000	96.48369	246.74699	96.48369
7450.00000	96.27942	247.51978	96.27942
7500.00000	96.13534	248.38869	96.13534
7550.00000	96.05602	249.20886	96.05602
7600.00000	96.13306	250.14757	96.13306
7650.00000	96.26814	250.44030	96.26814
7700.00000	96.42341	250.68569	96.42341
7750.00000	96.60559	250.12861	96.60559
7800.00000	96.81207	249.54658	96.81207
7850.00000	97.01978	248.34838	97.01978
7900.00000	97.20583	247.09639	97.20583
7950.00000	97.34797	245.68377	97.34797
8000.00000	97.47376	244.13433	97.47376
8050.00000	97.62695	242.61606	97.62695
8100.00000	97.73144	240.85955	97.73144
8150.00000	97.83264	239.10659	97.83264
8200.00000	97.93814	237.58572	97.93814
8250.00000	98.03450	235.65403	98.03450
8300.00000	98.16132	233.98016	98.16132
8350.00000	98.21055	231.81315	98.21055
8400.00000	98.30515	230.05165	98.30515
8450.00000	98.36916	228.27977	98.36916
8500.00000	98.44418	226.30580	98.44418
8550.00000	98.54911	224.68904	98.54911
8600.00000	98.62691	222.87239	98.62691
8650.00000	98.69603	221.32929	98.69603
8700.00000	98.77250	219.59913	98.77250
8750.00000	98.87060	217.85574	98.87060
8800.00000	98.96200	215.97772	98.96200
8850.00000	99.07529	213.93346	99.07529
8900.00000	99.15063	212.11690	99.15063
8950.00000	99.29558	210.22169	99.29558
9000.00000	99.35494	208.37303	99.35494
9050.00000	99.47047	206.30311	99.47047
9100.00000	99.52659	204.50931	99.52659
9150.00000	99.70213	202.58477	99.70213
9200.00000	99.82082	200.18017	99.82082
9250.00000	99.88016	197.67821	99.88016
9300.00000	99.99697	195.48026	99.99697
9350.00000	100.10638	192.86645	100.10638
9400.00000	100.20606	190.19424	100.20606
9450.00000	100.30345	187.50034	100.30345
9500.00000	100.41279	184.51392	100.41279
9550.00000	100.45565	181.58183	100.45565
9600.00000	100.50705	178.96959	100.50705
9650.00000	100.61719	176.10778	100.61719
9700.00000	100.66578	172.97558	100.66578
9750.00000	100.67818	169.80351	100.67818
9800.00000	100.61659	166.94399	100.61659
9850.00000	100.58467	164.04203	100.58467
9900.00000	100.56345	161.47897	100.56345
9950.00000	100.47440	159.08047	100.47440
10000.00000	100.51092	157.09340	100.51092
10050.00000	100.46574	154.54749	100.46574
10100.00000	100.42969	151.90455	100.42969
10150.00000	100.32531	149.76541	100.32531
10200.00000	100.28402	147.68075	100.28402
10250.00000	100.21620	145.73513	100.21620
10300.00000	100.19195	143.89643	100.19195
10350.00000	100.17953	142.06052	100.17953
10400.00000	100.16473	140.00075	100.16473
10450.00000	100.18323	137.83835	100.18323
10500.00000	100.21515	135.58518	100.21515
10550.00000	100.26552	133.26653	100.26552
10600.00000	100.36909	130.54757	100.36909
10650.00000	100.44426	127.94365	100.44426
10700.00000	100.49765	124.82774	100.49765
10750.00000	100.55493	122.06306	100.55493
10800.00000	100.62344	118.79013	100.62344
10850.00000	100.68826	115.70904	100.68826
10900.00000	100.71969	112.45219	100.71969
10950.00000	100.71492	109.37213	100.71492
11000.00000	100.76827	106.07447	100.76827
11050.00000	100.75222	102.87748	100.75222
11100.00000	100.74881	99.27509	100.74881
11150.00000	100.70277	95.82142	100.70277
11200.00000	100.66622	92.47531	100.66622
11250.00000	100.51232	88.41839	100.51232
11300.00000	100.36128	84.81166	100.36128
11350.00000	100.19649	81.01861	100.19649
11400.00000	99.94791	77.05744	99.94791
11450.00000	99.70996	73.23725	99.70996
11500.00000	99.45190	69.43837	99.45190
11550.00000	99.13889	65.55021	99.13889
11600.00000	98.82867	62.07813	98.82867
11650.00000	98.52694	58.77168	98.52694
11700.00000	98.21235	55.05901	98.21235
11750.00000	97.78080	51.97648	97.78080
11800.00000	97.42862	49.46948	97.42862
11850.00000	97.06954	47.02039	97.06954
11900.00000	96.64569	45.19719	96.64569
11950.00000	96.34955	43.49782	96.34955
12000.00000	96.01864	42.28547	96.01864
12050.00000	95.64151	41.02987	95.64151
12100.00000	95.21926	39.92779	95.21926
12150.00000	94.83493	38.48056	94.83493
12200.00000	94.36594	37.14610	94.36594
12250.00000	93.94781	36.52662	93.94781
12300.00000	93.39554	35.65315	93.39554
12350.00000	93.03440	35.44503	93.03440
12400.00000	92.61343	34.12112	92.61343
12450.00000	92.31761	33.37795	92.31761
12500.00000	91.95285	33.65270	91.95285
12550.00000	91.66034	33.40227	91.66034
12600.00000	91.43331	31.86543	91.43331
12650.00000	91.15795	32.48234	91.15795
12700.00000	90.84077	32.64790	90.84077
12750.00000	90.66193	33.27614	90.66193
12800.00000	90.54737	33.51633	90.54737
12850.00000	90.25892	33.99539	90.25892
12900.00000	90.08819	33.33076	90.08819
12950.00000	89.95613	32.95914	89.95613
13000.00000	89.78644	31.17992	89.78644
13050.00000	89.58137	29.75267	89.58137
13100.00000	89.52039	28.21290	89.52039
13150.00000	89.69302	27.68838	89.69302
13200.00000	89.79609	24.38919	89.79609
13250.00000	90.34540	20.76330	90.34540
13300.00000	91.09007	22.02341	91.09007
13350.00000	92.08903	21.06624	92.08903
13400.00000	93.29682	26.22396	93.29682
13450.00000	93.74362	35.94851	93.74362
13500.00000	93.42306	50.68246	93.42306
13550.00000	92.21315	58.42268	92.21315
13600.00000	90.43918	61.58523	90.43918
13650.00000	88.71305	60.43200	88.71305
13700.00000	87.48519	56.67979	87.48519
13750.00000	86.70825	48.80299	86.70825
13800.00000	86.38757	41.35067	86.38757
13850.00000	86.44542	33.28692	86.44542
13900.00000	86.74625	25.67564	86.74625
13950.00000	87.75064	20.20008	87.75064
14000.00000	89.06092	17.27274	89.06092
14050.00000	90.89440	18.15866	90.89440
14100.00000	93.04984	21.83163	93.04984
14150.00000	94.29360	36.76527	94.29360
14200.00000	94.44225	52.37051	94.44225
14250.00000	93.31402	65.21119	93.31402
14300.00000	91.88153	69.61563	91.88153
14350.00000	90.70798	69.75654	90.70798
14400.00000	89.89817	67.19340	89.89817
14450.00000	89.50135	63.63231	89.50135
14500.00000	89.25581	58.33874	89.25581
14550.00000	89.54023	52.71335	89.54023
14600.00000	89.88179	48.62875	89.88179
14650.00000	90.56805	44.13308	90.56805
14700.00000	91.43736	38.79730	91.43736
14750.00000	92.47363	35.92594	92.47363
14800.00000	93.60470	34.39581	93.60470
14850.00000	94.75941	34.05475	94.75941
14900.00000	96.01549	35.85966	96.01549
14950.00000	96.81429	39.11392	96.81429
15000.00000	97.14093	42.89001	97.14093
15050.00000	97.10443	46.67438	97.10443
15100.00000	96.96315	46.87983	96.96315
15150.00000	96.75194	44.98577	96.75194
15200.00000	96.68425	41.91878	96.68425
15250.00000	96.53907	37.39489	96.53907
15300.00000	96.57027	32.46717	96.57027
15350.00000	96.88066	27.65512	96.88066
15400.00000	97.25087	22.51175	97.25087
15450.00000	97.61016	16.43847	97.61016
15500.00000	98.19334	12.35922	98.19334
15550.00000	98.77339	 9.07600	98.77339
15600.00000	99.42070	 6.27600	99.42070
15650.00000	99.90274	 4.70169	99.90274
15700.00000	100.08091	 4.13398	100.08091
15750.00000	100.35763	 3.20417	100.35763
15800.00000	100.35102	 2.33307	100.35102
15850.00000	100.29640	 1.23986	100.29640
15900.00000	100.06451	-1.65450	100.06451
15950.00000	99.92409	-4.32601	99.92409
16000.00000	99.85595	-7.23236	99.85595
16050.00000	99.90972	-10.70885	99.90972
16100.00000	99.98610	-14.37224	99.98610
16150.00000	100.18155	-17.87188	100.18155
16200.00000	100.43484	-20.53623	100.43484
16250.00000	100.64762	-23.59344	100.64762
16300.00000	100.90719	-26.18205	100.90719
16350.00000	101.21258	-27.78830	101.21258
16400.00000	101.38531	-29.48728	101.38531
16450.00000	101.59912	-30.68917	101.59912
16500.00000	101.69562	-32.47343	101.69562
16550.00000	101.71115	-34.20004	101.71115
16600.00000	101.74317	-36.58142	101.74317
16650.00000	101.76499	-38.85791	101.76499
16700.00000	101.84556	-41.65588	101.84556
16750.00000	101.90873	-44.45505	101.90873
16800.00000	102.01988	-46.76302	102.01988
16850.00000	102.21048	-49.75793	102.21048
16900.00000	102.38050	-52.08641	102.38050
16950.00000	102.53918	-54.63897	102.53918
17000.00000	102.71013	-56.66169	102.71013
17050.00000	102.87520	-58.67151	102.87520
17100.00000	103.03398	-60.36983	103.03398
17150.00000	103.17098	-62.64059	103.17098
17200.00000	103.21647	-64.48390	103.21647
17250.00000	103.34612	-67.23039	103.34612
17300.00000	103.43684	-69.72020	103.43684
17350.00000	103.53745	-72.60993	103.53745
17400.00000	103.66114	-75.39548	103.66114
17450.00000	103.80270	-78.02926	103.80270
17500.00000	103.91680	-80.84075	103.91680
17550.00000	104.06534	-83.53694	104.06534
17600.00000	104.22178	-85.80909	104.22178
17650.00000	104.36322	-88.41640	104.36322
17700.00000	104.49561	-90.79969	104.49561
17750.00000	104.65134	-93.23912	104.65134
17800.00000	104.75506	-95.62092	104.75506
17850.00000	104.85773	-98.03431	104.85773
17900.00000	104.99555	-100.54840	104.99555
17950.00000	105.09702	-103.33521	105.09702
18000.00000	105.21572	-106.03822	105.21572
18050.00000	105.32188	-108.97425	105.32188
18100.00000	105.43219	-111.74996	105.43219
18150.00000	105.55157	-114.69045	105.55157
18200.00000	105.65083	-117.67830	105.65083
18250.00000	105.76254	-120.69027	105.76254
18300.00000	105.84853	-123.70938	105.84853
18350.00000	105.96643	-126.77576	105.96643
18400.00000	106.03084	-129.77569	106.03084
18450.00000	106.11526	-132.70723	106.11526
18500.00000	106.20161	-135.69879	106.20161
18550.00000	106.27856	-138.81103	106.27856
18600.00000	106.29833	-141.78097	106.29833
18650.00000	106.36898	-144.97467	106.36898
18700.00000	106.41521	-147.99064	106.41521
18750.00000	106.41311	-151.05347	106.41311
18800.00000	106.42803	-154.22397	106.42803
18850.00000	106.43933	-157.03720	106.43933
18900.00000	106.40229	-160.03208	106.40229
18950.00000	106.40229	-163.04809	106.40229
19000.00000	106.34986	-166.09030	106.34986
19050.00000	106.33050	-169.00667	106.33050
19100.00000	106.30777	-171.85792	106.30777
19150.00000	106.26827	-174.40706	106.26827
19200.00000	106.25834	-177.24603	106.25834
19250.00000	106.18679	-179.74927	106.18679
19300.00000	106.18867	-182.25722	106.18867
19350.00000	106.17171	-184.96283	106.17171
19400.00000	106.12173	-187.27798	106.12173
19450.00000	106.08395	-190.08883	106.08395
19500.00000	106.08430	-192.36700	106.08430
19550.00000	106.06679	-194.76609	106.06679
19600.00000	106.03414	-197.19605	106.03414
19650.00000	106.03078	-199.54456	106.03078
19700.00000	106.02944	-202.01561	106.02944
19750.00000	106.02246	-204.37698	106.02246
19800.00000	106.04819	-206.53024	106.04819
19850.00000	106.02703	-209.11694	106.02703
19900.00000	106.05927	-211.45853	106.05927
19950.00000	106.06344	-213.75493	106.06344
20000.00000	106.06623	-216.57103	106.06623
20050.00000	106.08745	-218.94180	106.08745
20100.00000	106.11758	-221.39009	106.11758
20150.00000	106.13104	-224.11117	106.13104
20200.00000	106.15698	-226.68181	106.15698
20250.00000	106.17058	-228.99939	106.17058
20300.00000	106.17806	-231.64282	106.17806
20350.00000	106.19558	-234.09850	106.19558
20400.00000	106.21304	-236.78800	106.21304
20450.00000	106.23530	-239.46577	106.23530
20500.00000	106.24384	-242.14194	106.24384
20550.00000	106.24658	-245.00965	106.24658
20600.00000	106.24951	-247.71003	106.24951
20650.00000	106.26970	-250.53547	106.26970
20700.00000	106.28350	-253.01414	106.28350
20750.00000	106.26483	-255.90631	106.26483
20800.00000	106.23489	-258.63239	106.23489
20850.00000	106.21902	-261.69226	106.21902
20900.00000	106.19046	-264.36364	106.19046
20950.00000	106.17262	-267.36752	106.17262
21000.00000	106.16454	-270.37989	106.16454
21050.00000	106.11647	-273.24479	106.11647
21100.00000	106.09091	-276.00699	106.09091
21150.00000	106.03248	-278.80168	106.03248
21200.00000	105.96710	-281.52502	105.96710
21250.00000	105.88514	-284.44397	105.88514
21300.00000	105.77922	-287.47087	105.77922
21350.00000	105.70191	-290.36744	105.70191
21400.00000	105.60051	-293.33562	105.60051
21450.00000	105.55499	-296.12917	105.55499
21500.00000	105.46542	-298.60675	105.46542
21550.00000	105.39252	-301.34084	105.39252
21600.00000	105.28050	-304.20784	105.28050
21650.00000	105.16768	-306.68345	105.16768
21700.00000	104.99813	-309.65874	104.99813
21750.00000	104.89814	-312.39089	104.89814
21800.00000	104.75943	-315.20057	104.75943
21850.00000	104.63523	-317.66613	104.63523
21900.00000	104.49547	-320.10424	104.49547
21950.00000	104.36277	-322.52044	104.36277
22000.00000	104.13675	-324.76751	104.13675
22050.00000	103.96993	-326.85604	103.96993
22100.00000	103.83472	-328.84533	103.83472
22150.00000	103.71619	-330.97649	103.71619
22200.00000	103.58488	-333.23299	103.58488
22250.00000	103.47500	-335.22136	103.47500
22300.00000	103.41166	-337.14168	103.41166
22350.00000	103.26049	-339.68906	103.26049
22400.00000	103.16635	-341.84375	103.16635
22450.00000	103.05862	-343.68704	103.05862
22500.00000	102.94735	-345.81624	102.94735
22550.00000	102.83891	-348.05355	102.83891
22600.00000	102.67825	-349.95348	102.67825
22650.00000	102.55236	-351.69307	102.55236
22700.00000	102.44784	-353.93027	102.44784
22750.00000	102.36387	-356.11056	102.36387
22800.00000	102.22459	-358.18930	102.22459
22850.00000	102.11087	-359.93633	102.11087
22900.00000	102.00981	-361.97343	102.00981
22950.00000	101.96068	-363.74536	101.96068
23000.00000	101.83456	-365.49077	101.83456
23050.00000	101.72004	-367.62058	101.72004
23100.00000	101.58311	-369.72821	101.58311
23150.00000	101.43013	-371.73010	101.43013
23200.00000	101.30264	-374.01640	101.30264
23250.00000	101.27375	-375.92743	101.27375
23300.00000	101.20646	-378.20106	101.20646
