---ACOUSTIC CALIBRATION---
Filename: C:\Data\CL0809 DATA\CL0809400\RightPrimary.calib
Date: 8/9/2019 1:47:58 PM
Format: 4
Probe Tube Correction File: C:\Data\Probe Tube Calibrations\74_ProbeTube.calib
Experiment VIs: 2128
EPL_CFTS.exe V15.0.1f5 (2015)
DAQmx V15.1

Attenuation (dB): 40.000000
Min Freq (Hz): 50.000000
Max Freq (Hz): 99950.000000
Freq Step (Hz): 50.000000
Sample Rate (Hz): 200000.000000
[Smoothing]
Method=None
MA.Iterations=0
MA.Length=0
Loess.Length=0
Loess.Type=Linear
Loess.Robust=FALSE


Freq(Hz)	Mag(dB)	Phase(deg)	Unsmoothed(dB)

50.00000	94.95266	326.54616	94.95266
100.00000	67.50129	222.99150	67.50129
150.00000	71.63018	438.04068	71.63018
200.00000	55.62596	499.06009	55.62596
250.00000	54.23008	883.85119	54.23008
300.00000	65.95235	881.62538	65.95235
350.00000	56.95654	1004.36063	56.95654
400.00000	51.76822	1191.46064	51.76822
450.00000	62.42197	1108.59777	62.42197
500.00000	63.05572	1164.95942	63.05572
550.00000	67.03020	1195.03725	67.03020
600.00000	69.08396	1133.03312	69.08396
650.00000	69.80767	1112.24477	69.80767
700.00000	74.71504	1138.30446	74.71504
750.00000	77.28023	1084.61672	77.28023
800.00000	77.78765	1085.47009	77.78765
850.00000	77.66352	1078.64584	77.66352
900.00000	77.32419	1084.59907	77.32419
950.00000	80.88531	1085.49496	80.88531
1000.00000	82.73877	1085.88805	82.73877
1050.00000	85.95069	1078.65195	85.95069
1100.00000	88.80557	1062.98547	88.80557
1150.00000	89.73484	1047.62282	89.73484
1200.00000	90.61318	1038.65592	90.61318
1250.00000	91.39960	1027.76041	91.39960
1300.00000	92.20916	1021.01669	92.20916
1350.00000	93.66825	1010.66198	93.66825
1400.00000	94.23541	997.33763	94.23541
1450.00000	94.17235	986.45428	94.17235
1500.00000	94.29120	979.13605	94.29120
1550.00000	94.20047	972.28484	94.20047
1600.00000	94.80878	969.06974	94.80878
1650.00000	95.47024	966.39523	95.47024
1700.00000	99.28645	951.14156	99.28645
1750.00000	96.35810	931.68524	96.35810
1800.00000	96.04925	926.10423	96.04925
1850.00000	95.66460	918.69571	95.66460
1900.00000	95.43724	912.83519	95.43724
1950.00000	94.94342	909.09282	94.94342
2000.00000	94.76720	906.97964	94.76720
2050.00000	95.11913	904.18982	95.11913
2100.00000	95.54824	897.90428	95.54824
2150.00000	95.79523	890.00759	95.79523
2200.00000	95.52238	879.18116	95.52238
2250.00000	94.53613	873.99063	94.53613
2300.00000	94.32771	872.26579	94.32771
2350.00000	94.36216	866.72748	94.36216
2400.00000	94.37403	860.98028	94.37403
2450.00000	93.75251	853.08626	93.75251
2500.00000	92.80970	850.64481	92.80970
2550.00000	92.56717	847.73305	92.56717
2600.00000	92.15510	843.70151	92.15510
2650.00000	91.64944	841.80365	91.64944
2700.00000	91.24250	838.81837	91.24250
2750.00000	90.71465	836.01960	90.71465
2800.00000	90.13447	833.18192	90.13447
2850.00000	89.73759	832.31263	89.73759
2900.00000	89.48913	830.85734	89.48913
2950.00000	89.10938	829.24392	89.10938
3000.00000	88.87153	828.55187	88.87153
3050.00000	88.67007	826.77732	88.67007
3100.00000	88.32119	823.54238	88.32119
3150.00000	87.59633	822.23680	87.59633
3200.00000	87.27930	820.50135	87.27930
3250.00000	86.91791	818.76763	86.91791
3300.00000	86.12005	817.91097	86.12005
3350.00000	85.76867	818.53222	85.76867
3400.00000	85.31196	817.13247	85.31196
3450.00000	84.69690	817.21413	84.69690
3500.00000	83.99358	817.21892	83.99358
3550.00000	83.57826	816.57119	83.57826
3600.00000	82.20788	814.99139	82.20788
3650.00000	80.68630	820.99536	80.68630
3700.00000	79.27716	829.57246	79.27716
3750.00000	78.04620	839.87985	78.04620
3800.00000	77.93107	857.69457	77.93107
3850.00000	78.96655	868.47022	78.96655
3900.00000	80.26067	877.22272	80.26067
3950.00000	80.97725	886.67175	80.97725
4000.00000	82.31346	895.23426	82.31346
4050.00000	83.71338	903.38091	83.71338
4100.00000	85.53948	908.16250	85.53948
4150.00000	88.17320	909.21042	88.17320
4200.00000	89.93031	908.47793	89.93031
4250.00000	90.89517	899.61853	90.89517
4300.00000	91.89275	900.41042	91.89275
4350.00000	93.26537	898.55135	93.26537
4400.00000	94.54206	894.44310	94.54206
4450.00000	95.46370	888.40743	95.46370
4500.00000	96.23465	883.00365	96.23465
4550.00000	96.54384	878.88898	96.54384
4600.00000	97.07493	877.15299	97.07493
4650.00000	97.79084	877.09072	97.79084
4700.00000	98.78239	875.95004	98.78239
4750.00000	99.89548	873.80259	99.89548
4800.00000	101.04598	870.88547	101.04598
4850.00000	102.20498	867.03454	102.20498
4900.00000	103.39930	862.14168	103.39930
4950.00000	104.62545	857.05915	104.62545
5000.00000	105.91400	850.98123	105.91400
5050.00000	107.33124	843.95315	107.33124
5100.00000	108.94400	835.39636	108.94400
5150.00000	110.88660	823.84828	110.88660
5200.00000	113.25854	804.73975	113.25854
5250.00000	114.89624	768.09153	114.89624
5300.00000	111.78183	724.77276	111.78183
5350.00000	106.02591	708.34513	106.02591
5400.00000	101.48671	712.93513	101.48671
5450.00000	98.72263	721.90338	98.72263
5500.00000	96.17220	732.40946	96.17220
5550.00000	94.45116	754.23855	94.45116
5600.00000	95.57976	776.40717	95.57976
5650.00000	97.85641	785.24295	97.85641
5700.00000	99.71399	784.25527	99.71399
5750.00000	100.76176	780.24236	100.76176
5800.00000	101.23751	777.24500	101.23751
5850.00000	101.59907	776.05793	101.59907
5900.00000	102.05115	775.48586	102.05115
5950.00000	102.63784	775.18072	102.63784
6000.00000	103.32478	774.52758	103.32478
6050.00000	104.07738	773.24311	104.07738
6100.00000	104.86821	771.49295	104.86821
6150.00000	105.66078	769.14346	105.66078
6200.00000	106.51676	766.55872	106.51676
6250.00000	107.40183	763.35987	107.40183
6300.00000	108.32249	759.46154	108.32249
6350.00000	109.27630	754.87907	109.27630
6400.00000	110.26303	749.46491	110.26303
6450.00000	111.24291	742.79450	111.24291
6500.00000	112.14749	734.87557	112.14749
6550.00000	112.95365	725.79405	112.95365
6600.00000	113.57240	715.86083	113.57240
6650.00000	113.99786	705.23312	113.99786
6700.00000	114.20184	694.33348	114.20184
6750.00000	114.17178	683.50917	114.17178
6800.00000	113.93639	673.24025	113.93639
6850.00000	113.52951	663.82952	113.52951
6900.00000	113.00973	655.41232	113.00973
6950.00000	112.42522	648.08224	112.42522
7000.00000	111.83643	641.73590	111.83643
7050.00000	111.28100	636.23615	111.28100
7100.00000	110.76022	631.25631	110.76022
7150.00000	110.29541	626.61832	110.29541
7200.00000	109.86061	622.11516	109.86061
7250.00000	109.43377	617.86801	109.43377
7300.00000	109.04123	613.81928	109.04123
7350.00000	108.67216	609.67711	108.67216
7400.00000	108.27866	605.57240	108.27866
7450.00000	107.88344	601.71550	107.88344
7500.00000	107.48318	597.89950	107.48318
7550.00000	107.06120	594.20332	107.06120
7600.00000	106.62518	590.71628	106.62518
7650.00000	106.20331	587.42635	106.20331
7700.00000	105.75941	584.36601	105.75941
7750.00000	105.32840	581.57941	105.32840
7800.00000	104.91421	579.20262	104.91421
7850.00000	104.51797	576.71047	104.51797
7900.00000	104.15066	574.50482	104.15066
7950.00000	103.76410	572.39120	103.76410
8000.00000	103.40556	570.79212	103.40556
8050.00000	103.09003	569.19635	103.09003
8100.00000	102.78746	567.64112	102.78746
8150.00000	102.52409	566.07498	102.52409
8200.00000	102.28703	564.74605	102.28703
8250.00000	102.08327	563.34000	102.08327
8300.00000	101.91108	561.75324	101.91108
8350.00000	101.72738	560.09225	101.72738
8400.00000	101.55116	558.68611	101.55116
8450.00000	101.37724	557.35650	101.37724
8500.00000	101.25310	555.95661	101.25310
8550.00000	101.14126	554.44257	101.14126
8600.00000	101.03924	552.94414	101.03924
8650.00000	100.96790	551.56259	100.96790
8700.00000	100.86740	550.10666	100.86740
8750.00000	100.82786	548.61219	100.82786
8800.00000	100.76815	546.85068	100.76815
8850.00000	100.75868	545.17188	100.75868
8900.00000	100.70499	543.44143	100.70499
8950.00000	100.73583	541.79533	100.73583
9000.00000	100.68002	539.97131	100.68002
9050.00000	100.70237	538.29187	100.70237
9100.00000	100.73373	536.66113	100.73373
9150.00000	100.86881	534.76566	100.86881
9200.00000	100.89247	532.27240	100.89247
9250.00000	100.88089	530.07337	100.88089
9300.00000	101.00425	527.83406	101.00425
9350.00000	101.04561	525.08410	101.04561
9400.00000	101.08341	522.38300	101.08341
9450.00000	101.15157	519.49520	101.15157
9500.00000	101.16768	516.18151	101.16768
9550.00000	101.13922	513.17758	101.13922
9600.00000	101.14921	510.26752	101.14921
9650.00000	101.17138	507.20609	101.17138
9700.00000	101.10919	503.62551	101.10919
9750.00000	100.95265	500.09226	100.95265
9800.00000	100.74984	496.90863	100.74984
9850.00000	100.45431	493.83733	100.45431
9900.00000	100.08447	492.02505	100.08447
9950.00000	99.66820	492.24964	99.66820
10000.00000	99.74159	494.81391	99.74159
10050.00000	100.46409	494.90624	100.46409
10100.00000	101.02741	490.65111	101.02741
10150.00000	101.20300	485.73743	101.20300
10200.00000	101.26110	481.28538	101.26110
10250.00000	101.19751	477.44762	101.19751
10300.00000	101.17433	473.98139	101.17433
10350.00000	101.13474	470.45461	101.13474
10400.00000	101.08058	467.00469	101.08058
10450.00000	101.05746	463.60013	101.05746
10500.00000	101.05694	460.15809	101.05694
10550.00000	101.02933	456.96323	101.02933
10600.00000	101.09332	453.16095	101.09332
10650.00000	101.07522	449.53667	101.07522
10700.00000	101.08661	445.43305	101.08661
10750.00000	101.05531	441.59954	101.05531
10800.00000	101.03628	437.38716	101.03628
10850.00000	101.02697	433.08100	101.02697
10900.00000	100.96481	428.95127	100.96481
10950.00000	100.89165	424.68174	100.89165
11000.00000	100.86709	420.57513	100.86709
11050.00000	100.76277	415.86689	100.76277
11100.00000	100.63118	411.30388	100.63118
11150.00000	100.53108	406.75855	100.53108
11200.00000	100.38471	401.85157	100.38471
11250.00000	100.14469	396.71093	100.14469
11300.00000	99.90822	391.82238	99.90822
11350.00000	99.64205	386.70032	99.64205
11400.00000	99.33205	381.64167	99.33205
11450.00000	98.99998	376.57133	98.99998
11500.00000	98.63440	371.44213	98.63440
11550.00000	98.22925	366.32844	98.22925
11600.00000	97.79926	361.58478	97.79926
11650.00000	97.40329	356.69608	97.40329
11700.00000	96.91323	351.46518	96.91323
11750.00000	96.40974	347.09076	96.40974
11800.00000	95.93727	342.64264	95.93727
11850.00000	95.45643	338.37920	95.45643
11900.00000	94.89920	334.34561	94.89920
11950.00000	94.44519	330.55751	94.44519
12000.00000	93.95867	327.01239	93.95867
12050.00000	93.44043	323.54623	93.44043
12100.00000	92.90254	319.53534	92.90254
12150.00000	92.33414	315.48335	92.33414
12200.00000	91.75080	312.09802	91.75080
12250.00000	91.12038	308.59395	91.12038
12300.00000	90.39735	304.88732	90.39735
12350.00000	89.85329	301.65851	89.85329
12400.00000	89.17507	297.89583	89.17507
12450.00000	88.66565	293.91248	88.66565
12500.00000	88.12400	290.95239	88.12400
12550.00000	87.56119	287.18373	87.56119
12600.00000	87.00905	282.13579	87.00905
12650.00000	86.45802	279.70080	86.45802
12700.00000	85.95264	275.19723	85.95264
12750.00000	85.53083	272.14630	85.53083
12800.00000	85.22110	269.10386	85.22110
12850.00000	84.66452	264.25081	84.66452
12900.00000	84.27047	259.84154	84.27047
12950.00000	84.19234	254.47871	84.19234
13000.00000	83.85658	248.80941	83.85658
13050.00000	83.70234	243.33888	83.70234
13100.00000	83.66606	238.53631	83.66606
13150.00000	83.70807	232.62045	83.70807
13200.00000	84.00514	224.50361	84.00514
13250.00000	84.72664	217.42879	84.72664
13300.00000	85.58752	212.69515	85.58752
13350.00000	86.89077	207.43889	86.89077
13400.00000	88.27539	207.31199	88.27539
13450.00000	89.37715	212.45560	89.37715
13500.00000	89.16360	223.24132	89.16360
13550.00000	88.60753	226.89876	88.60753
13600.00000	87.33814	226.36190	87.33814
13650.00000	86.33457	219.57581	86.33457
13700.00000	85.68265	211.89955	85.68265
13750.00000	85.36407	200.84627	85.36407
13800.00000	85.59678	189.32155	85.59678
13850.00000	86.20831	177.29305	86.20831
13900.00000	86.97330	166.10703	86.97330
13950.00000	88.43731	155.46116	88.43731
14000.00000	90.31702	146.35275	90.31702
14050.00000	92.59164	143.16107	92.59164
14100.00000	95.11424	142.42161	95.11424
14150.00000	96.87334	152.52934	96.87334
14200.00000	97.23372	163.35452	97.23372
14250.00000	96.39782	171.10195	96.39782
14300.00000	95.26720	171.31682	95.26720
14350.00000	94.40106	166.06467	94.40106
14400.00000	93.82864	160.15947	93.82864
14450.00000	93.56583	152.17599	93.56583
14500.00000	93.50000	143.68349	93.50000
14550.00000	93.90871	133.89721	93.90871
14600.00000	94.31784	126.88427	94.31784
14650.00000	95.07660	118.54546	95.07660
14700.00000	95.97290	109.77588	95.97290
14750.00000	97.03103	103.83479	97.03103
14800.00000	98.10558	98.72711	98.10558
14850.00000	99.34515	95.87813	99.34515
14900.00000	100.54657	94.39716	100.54657
14950.00000	101.30197	95.44625	101.30197
15000.00000	101.63996	96.20812	101.63996
15050.00000	101.66797	97.36862	101.66797
15100.00000	101.50702	95.17677	101.50702
15150.00000	101.24737	91.31718	101.24737
15200.00000	101.10555	86.28368	101.10555
15250.00000	100.86636	80.26305	100.86636
15300.00000	100.85805	73.59397	100.85805
15350.00000	101.10061	66.97112	101.10061
15400.00000	101.32651	59.97690	101.32651
15450.00000	101.67695	52.84849	101.67695
15500.00000	102.16288	47.18087	102.16288
15550.00000	102.67034	42.57641	102.67034
15600.00000	103.21027	38.16498	103.21027
15650.00000	103.65431	35.20096	103.65431
15700.00000	103.85097	33.15368	103.85097
15750.00000	104.08837	31.69237	104.08837
15800.00000	103.99421	29.38264	103.99421
15850.00000	104.03812	27.47391	104.03812
15900.00000	103.80411	23.96613	103.80411
15950.00000	103.65662	20.10153	103.65662
16000.00000	103.56274	15.38569	103.56274
16050.00000	103.60483	10.90827	103.60483
16100.00000	103.59532	 6.45719	103.59532
16150.00000	103.73364	 1.44886	103.73364
16200.00000	103.92603	-2.22958	103.92603
16250.00000	104.13112	-6.49276	104.13112
16300.00000	104.33764	-9.84525	104.33764
16350.00000	104.55399	-12.70423	104.55399
16400.00000	104.68201	-15.29990	104.68201
16450.00000	104.82080	-17.58170	104.82080
16500.00000	104.86045	-20.31734	104.86045
16550.00000	104.84176	-22.78471	104.84176
16600.00000	104.81107	-25.83783	104.81107
16650.00000	104.76931	-29.05284	104.76931
16700.00000	104.81706	-32.55775	104.81706
16750.00000	104.80464	-36.20765	104.80464
16800.00000	104.87344	-39.59862	104.87344
16850.00000	104.98196	-43.41494	104.98196
16900.00000	105.08770	-46.47073	105.08770
16950.00000	105.15426	-49.76353	105.15426
17000.00000	105.25755	-52.60316	105.25755
17050.00000	105.37675	-55.17990	105.37675
17100.00000	105.43192	-57.81962	105.43192
17150.00000	105.45432	-60.21399	105.45432
17200.00000	105.41754	-63.11812	105.41754
17250.00000	105.47966	-66.10995	105.47966
17300.00000	105.48436	-69.24167	105.48436
17350.00000	105.51393	-72.34828	105.51393
17400.00000	105.51932	-75.59134	105.51932
17450.00000	105.60291	-78.61894	105.60291
17500.00000	105.64958	-81.88830	105.64958
17550.00000	105.71852	-85.07470	105.71852
17600.00000	105.80197	-87.77180	105.80197
17650.00000	105.87054	-90.47716	105.87054
17700.00000	105.95293	-93.13663	105.95293
17750.00000	106.02630	-95.93242	106.02630
17800.00000	106.05638	-98.68062	106.05638
17850.00000	106.11356	-101.52014	106.11356
17900.00000	106.18159	-104.27074	106.18159
17950.00000	106.18234	-107.25050	106.18234
18000.00000	106.26575	-110.24234	106.26575
18050.00000	106.31903	-113.52194	106.31903
18100.00000	106.35652	-116.56341	106.35652
18150.00000	106.40801	-119.76812	106.40801
18200.00000	106.44882	-122.87244	106.44882
18250.00000	106.50190	-126.03821	106.50190
18300.00000	106.52780	-129.24551	106.52780
18350.00000	106.55906	-132.48413	106.55906
18400.00000	106.57654	-135.61400	106.57654
18450.00000	106.59812	-138.87325	106.59812
18500.00000	106.60876	-142.01983	106.60876
18550.00000	106.61508	-145.39115	106.61508
18600.00000	106.58302	-148.45220	106.58302
18650.00000	106.58936	-151.67567	106.58936
18700.00000	106.57442	-154.70019	106.57442
18750.00000	106.52348	-157.79687	106.52348
18800.00000	106.47896	-161.11637	106.47896
18850.00000	106.44053	-164.03688	106.44053
18900.00000	106.34523	-166.90173	106.34523
18950.00000	106.29636	-170.04036	106.29636
19000.00000	106.21245	-172.96235	106.21245
19050.00000	106.14065	-175.92080	106.14065
19100.00000	106.08688	-178.92570	106.08688
19150.00000	106.02331	-181.44942	106.02331
19200.00000	105.94974	-184.36362	105.94974
19250.00000	105.86428	-186.79546	105.86428
19300.00000	105.82653	-189.47674	105.82653
19350.00000	105.76061	-192.16106	105.76061
19400.00000	105.67266	-194.55333	105.67266
19450.00000	105.62004	-197.33810	105.62004
19500.00000	105.56853	-199.72467	105.56853
19550.00000	105.52720	-202.20228	105.52720
19600.00000	105.45227	-204.61792	105.45227
19650.00000	105.41313	-207.13072	105.41313
19700.00000	105.39883	-209.68395	105.39883
19750.00000	105.33762	-212.02548	105.33762
19800.00000	105.30958	-214.35208	105.30958
19850.00000	105.27391	-216.90810	105.27391
19900.00000	105.25355	-219.33189	105.25355
19950.00000	105.21037	-221.72150	105.21037
20000.00000	105.16275	-224.56644	105.16275
20050.00000	105.14309	-226.82979	105.14309
20100.00000	105.11034	-229.29885	105.11034
20150.00000	105.08896	-231.99118	105.08896
20200.00000	105.06535	-234.36486	105.06535
20250.00000	105.03150	-236.62269	105.03150
20300.00000	105.01312	-239.24681	105.01312
20350.00000	105.00060	-241.56288	105.00060
20400.00000	104.96902	-244.02928	104.96902
20450.00000	104.94593	-246.53439	104.94593
20500.00000	104.92399	-249.07975	104.92399
20550.00000	104.88515	-251.86133	104.88515
20600.00000	104.87535	-254.22112	104.87535
20650.00000	104.88029	-256.89950	104.88029
20700.00000	104.86797	-259.04690	104.86797
20750.00000	104.81641	-261.65221	104.81641
20800.00000	104.78250	-264.19394	104.78250
20850.00000	104.77234	-267.01515	104.77234
20900.00000	104.73196	-269.55722	104.73196
20950.00000	104.71415	-272.26400	104.71415
21000.00000	104.72437	-275.16178	104.72437
21050.00000	104.69755	-277.55078	104.69755
21100.00000	104.68880	-280.24256	104.68880
21150.00000	104.63713	-282.72496	104.63713
21200.00000	104.60630	-285.44738	104.60630
21250.00000	104.55481	-288.18189	104.55481
21300.00000	104.49265	-290.90228	104.49265
21350.00000	104.46219	-293.53753	104.46219
21400.00000	104.41622	-296.54184	104.41622
21450.00000	104.42992	-299.21756	104.42992
21500.00000	104.40624	-301.72293	104.40624
21550.00000	104.39972	-304.54503	104.39972
21600.00000	104.32676	-307.64083	104.32676
21650.00000	104.29553	-310.10965	104.29553
21700.00000	104.19314	-313.40389	104.19314
21750.00000	104.18329	-316.48371	104.18329
21800.00000	104.09336	-319.50345	104.09336
21850.00000	104.04004	-322.54472	104.04004
21900.00000	103.92347	-325.62070	103.92347
21950.00000	103.81247	-328.70513	103.81247
22000.00000	103.63317	-331.58150	103.63317
22050.00000	103.51365	-334.19633	103.51365
22100.00000	103.38645	-336.95074	103.38645
22150.00000	103.31469	-339.60767	103.31469
22200.00000	103.15090	-342.69775	103.15090
22250.00000	103.02173	-345.44146	103.02173
22300.00000	102.88952	-348.27450	102.88952
22350.00000	102.75475	-351.45487	102.75475
22400.00000	102.57921	-354.12391	102.57921
22450.00000	102.41847	-356.65422	102.41847
22500.00000	102.19480	-359.92316	102.19480
22550.00000	101.99903	-362.52213	101.99903
22600.00000	101.77598	-364.82914	101.77598
22650.00000	101.55988	-367.45760	101.55988
22700.00000	101.37278	-369.56931	101.37278
22750.00000	101.13717	-372.26326	101.13717
22800.00000	100.95800	-374.68821	100.95800
22850.00000	100.72201	-376.63834	100.72201
22900.00000	100.54627	-378.82691	100.54627
22950.00000	100.38117	-380.96782	100.38117
23000.00000	100.13614	-383.16458	100.13614
23050.00000	99.95266	-385.05927	99.95266
23100.00000	99.70749	-387.11816	99.70749
