---ACOUSTIC CALIBRATION---
Filename: C:\Data\AZH DATA\AZH51\RightPrimary.calib
Date: 8/27/2019 11:15:48 AM
Format: 4
Probe Tube Correction File: C:\Data\Probe Tube Calibrations\50_ProbeTube.calib
Experiment VIs: 850
EPL_CFTS.exe V12.0.1 (2012)
DAQmx V9.6

Attenuation (dB): 40.000000
Min Freq (Hz): 50.000000
Max Freq (Hz): 49950.000000
Freq Step (Hz): 50.000000
Sample Rate (Hz): 100000.000000
[Smoothing]
Method=None
MA.Iterations=0
MA.Length=0
Loess.Length=0
Loess.Type=Linear
Loess.Robust=FALSE


Freq(Hz)	Mag(dB)	Phase(deg)	Unsmoothed(dB)

50.00000	89.29711	424.51895	89.29711
100.00000	84.62059	558.91069	84.62059
150.00000	76.63649	569.12329	76.63649
200.00000	70.64562	501.90657	70.64562
250.00000	83.99735	440.37037	83.99735
300.00000	84.01764	375.32272	84.01764
350.00000	83.38157	397.41297	83.38157
400.00000	84.63635	379.23318	84.63635
450.00000	86.30121	358.55642	86.30121
500.00000	89.98885	358.29912	89.98885
550.00000	90.61260	369.29472	90.61260
600.00000	94.67651	361.29570	94.67651
650.00000	96.33884	344.06580	96.33884
700.00000	98.71035	327.98566	98.71035
750.00000	100.06978	312.96755	100.06978
800.00000	100.50872	290.44903	100.50872
850.00000	100.45422	274.30933	100.45422
900.00000	98.70017	255.58230	98.70017
950.00000	96.85628	255.23623	96.85628
1000.00000	95.38129	256.95251	95.38129
1050.00000	93.75538	273.41862	93.75538
1100.00000	95.74491	294.82852	95.74491
1150.00000	98.65898	297.51468	98.65898
1200.00000	101.21770	296.64259	101.21770
1250.00000	103.07018	288.33914	103.07018
1300.00000	104.57173	282.84131	104.57173
1350.00000	105.92519	273.30994	105.92519
1400.00000	106.70328	265.30309	106.70328
1450.00000	107.72622	260.08303	107.72622
1500.00000	108.91103	252.82043	108.91103
1550.00000	109.67440	244.73087	109.67440
1600.00000	111.24874	234.87820	111.24874
1650.00000	112.12885	217.95435	112.12885
1700.00000	110.90737	207.93483	110.90737
1750.00000	110.58315	202.44171	110.58315
1800.00000	110.31998	198.49089	110.31998
1850.00000	110.53079	197.38633	110.53079
1900.00000	111.68725	193.06930	111.68725
1950.00000	112.28094	179.88011	112.28094
2000.00000	111.23036	168.24540	111.23036
2050.00000	109.99100	173.16548	109.99100
2100.00000	111.77358	172.92215	111.77358
2150.00000	112.41626	161.94426	112.41626
2200.00000	112.29546	152.09338	112.29546
2250.00000	111.75967	145.10601	111.75967
2300.00000	111.81080	139.75459	111.81080
2350.00000	111.57086	133.29599	111.57086
2400.00000	111.24860	127.55755	111.24860
2450.00000	110.94121	121.27934	110.94121
2500.00000	110.45260	116.26566	110.45260
2550.00000	110.01954	111.45842	110.01954
2600.00000	109.39796	107.13125	109.39796
2650.00000	108.82976	103.35015	108.82976
2700.00000	108.30530	99.71182	108.30530
2750.00000	107.54613	96.08050	107.54613
2800.00000	106.61523	93.92160	106.61523
2850.00000	105.76821	92.46185	105.76821
2900.00000	104.85161	92.40226	104.85161
2950.00000	103.75664	92.98357	103.75664
3000.00000	102.62964	96.20341	102.62964
3050.00000	101.35139	101.82945	101.35139
3100.00000	100.37706	114.21910	100.37706
3150.00000	100.24524	129.61187	100.24524
3200.00000	101.47030	145.59652	101.47030
3250.00000	103.48311	154.69932	103.48311
3300.00000	105.34549	158.76102	105.34549
3350.00000	107.26975	161.22304	107.26975
3400.00000	109.30273	162.34991	109.30273
3450.00000	111.35815	159.64409	111.35815
3500.00000	113.33807	153.76436	113.33807
3550.00000	114.81202	145.55315	114.81202
3600.00000	116.11420	138.07261	116.11420
3650.00000	117.13189	129.10605	117.13189
3700.00000	117.96264	120.61255	117.96264
3750.00000	118.65202	111.91381	118.65202
3800.00000	119.14314	103.25216	119.14314
3850.00000	119.45747	95.63095	119.45747
3900.00000	119.79440	89.26183	119.79440
3950.00000	120.26030	82.91131	120.26030
4000.00000	120.72800	76.11919	120.72800
4050.00000	121.20327	69.18976	121.20327
4100.00000	121.69098	61.75219	121.69098
4150.00000	122.30136	53.41499	122.30136
4200.00000	122.55181	43.98950	122.55181
4250.00000	122.72731	34.36270	122.72731
4300.00000	122.75098	24.70774	122.75098
4350.00000	122.58530	15.25158	122.58530
4400.00000	122.31461	 6.68335	122.31461
4450.00000	121.99493	-1.20132	121.99493
4500.00000	121.66142	-8.64207	121.66142
4550.00000	121.33693	-15.90164	121.33693
4600.00000	120.97430	-23.00910	120.97430
4650.00000	120.62924	-30.17495	120.62924
4700.00000	120.21747	-37.91687	120.21747
4750.00000	119.62834	-45.97264	119.62834
4800.00000	118.81694	-53.88785	118.81694
4850.00000	117.72660	-60.49137	117.72660
4900.00000	116.51000	-64.93470	116.51000
4950.00000	115.31729	-66.76877	115.31729
5000.00000	114.29779	-67.09092	114.29779
5050.00000	113.46200	-66.84289	113.46200
5100.00000	112.62457	-63.16863	112.62457
5150.00000	112.86443	-59.22186	112.86443
5200.00000	113.07302	-56.87481	113.07302
5250.00000	114.20287	-60.85703	114.20287
5300.00000	114.02140	-69.57197	114.02140
5350.00000	113.35419	-73.84153	113.35419
5400.00000	112.84579	-75.73896	112.84579
5450.00000	112.47740	-76.97646	112.47740
5500.00000	112.22373	-78.29051	112.22373
5550.00000	111.99649	-79.61848	111.99649
5600.00000	111.83158	-80.77556	111.83158
5650.00000	111.72658	-81.97298	111.72658
5700.00000	111.66496	-83.33711	111.66496
5750.00000	111.65467	-84.73882	111.65467
5800.00000	111.69189	-86.57175	111.69189
5850.00000	111.76094	-88.90644	111.76094
5900.00000	111.81519	-91.53612	111.81519
5950.00000	111.81989	-94.49908	111.81989
6000.00000	111.76557	-97.46953	111.76557
6050.00000	111.68420	-100.27392	111.68420
6100.00000	111.58176	-103.25100	111.58176
6150.00000	111.46448	-106.09904	111.46448
6200.00000	111.34591	-108.76173	111.34591
6250.00000	111.22326	-111.29625	111.22326
6300.00000	111.10521	-114.00309	111.10521
6350.00000	110.97443	-116.53865	110.97443
6400.00000	110.83894	-118.93400	110.83894
6450.00000	110.74650	-121.40776	110.74650
6500.00000	110.60143	-124.02216	110.60143
6550.00000	110.47442	-126.46440	110.47442
6600.00000	110.36099	-128.78467	110.36099
6650.00000	110.23012	-131.13329	110.23012
6700.00000	110.16212	-133.69688	110.16212
6750.00000	110.04483	-136.07368	110.04483
6800.00000	109.96514	-138.54257	109.96514
6850.00000	109.85447	-140.91869	109.85447
6900.00000	109.77930	-143.24451	109.77930
6950.00000	109.67773	-145.64799	109.67773
7000.00000	109.60564	-148.10630	109.60564
7050.00000	109.49565	-150.58977	109.49565
7100.00000	109.42493	-153.20230	109.42493
7150.00000	109.31987	-155.78549	109.31987
7200.00000	109.22340	-158.42095	109.22340
7250.00000	109.07317	-161.05093	109.07317
7300.00000	108.98734	-163.81054	108.98734
7350.00000	108.82939	-166.35410	108.82939
7400.00000	108.70358	-169.19830	108.70358
7450.00000	108.54269	-172.00411	108.54269
7500.00000	108.37465	-174.73170	108.37465
7550.00000	108.20626	-177.22544	108.20626
7600.00000	107.98991	-179.71738	107.98991
7650.00000	107.78323	-182.17189	107.78323
7700.00000	107.61451	-184.53073	107.61451
7750.00000	107.36975	-186.89571	107.36975
7800.00000	107.13739	-189.02409	107.13739
7850.00000	106.91635	-190.97992	106.91635
7900.00000	106.72243	-192.81454	106.72243
7950.00000	106.49884	-194.62101	106.49884
8000.00000	106.31546	-196.55939	106.31546
8050.00000	106.13524	-198.46964	106.13524
8100.00000	105.99367	-199.52907	105.99367
8150.00000	105.82666	-201.01880	105.82666
8200.00000	105.67972	-202.12036	105.67972
8250.00000	105.52021	-203.45941	105.52021
8300.00000	105.44454	-204.57829	105.44454
8350.00000	105.31221	-205.43825	105.31221
8400.00000	105.16144	-206.83241	105.16144
8450.00000	104.98385	-207.95775	104.98385
8500.00000	104.82774	-209.24639	104.82774
8550.00000	104.73770	-210.44250	104.73770
8600.00000	104.63542	-212.21090	104.63542
8650.00000	104.51028	-213.86773	104.51028
8700.00000	104.49456	-216.06463	104.49456
8750.00000	104.40745	-216.95748	104.40745
8800.00000	104.44409	-219.04287	104.44409
8850.00000	104.45201	-220.71520	104.45201
8900.00000	104.51841	-221.96245	104.51841
8950.00000	104.56780	-223.53102	104.56780
9000.00000	104.53921	-224.91773	104.53921
9050.00000	104.56482	-226.68602	104.56482
9100.00000	104.52053	-228.06628	104.52053
9150.00000	104.51424	-229.70262	104.51424
9200.00000	104.50633	-231.44517	104.50633
9250.00000	104.45956	-233.63673	104.45956
9300.00000	104.48633	-235.84607	104.48633
9350.00000	104.57106	-238.13281	104.57106
9400.00000	104.54965	-239.97932	104.54965
9450.00000	104.68233	-241.90873	104.68233
9500.00000	104.86550	-243.03260	104.86550
9550.00000	105.14828	-244.62474	105.14828
9600.00000	105.36308	-247.21319	105.36308
9650.00000	105.43630	-249.69787	105.43630
9700.00000	105.46482	-251.51164	105.46482
9750.00000	105.54647	-254.62652	105.54647
9800.00000	105.49708	-256.86024	105.49708
9850.00000	105.49797	-259.37505	105.49797
9900.00000	105.37650	-262.53240	105.37650
9950.00000	105.38703	-265.27975	105.38703
10000.00000	105.39793	-268.80215	105.39793
10050.00000	105.38890	-271.97350	105.38890
10100.00000	105.38240	-274.87872	105.38240
10150.00000	105.28870	-278.42131	105.28870
10200.00000	105.24555	-281.33370	105.24555
10250.00000	105.11922	-284.73758	105.11922
10300.00000	105.08720	-288.00174	105.08720
10350.00000	104.90981	-291.20295	104.90981
10400.00000	104.69595	-294.82662	104.69595
10450.00000	104.63055	-298.64174	104.63055
10500.00000	104.53764	-302.16958	104.53764
10550.00000	104.40966	-305.74534	104.40966
10600.00000	104.25194	-308.83924	104.25194
10650.00000	104.07489	-311.54156	104.07489
10700.00000	103.89289	-315.23921	103.89289
10750.00000	103.72336	-318.25328	103.72336
10800.00000	103.42476	-320.81598	103.42476
10850.00000	103.12669	-324.51705	103.12669
10900.00000	102.85140	-327.24483	102.85140
10950.00000	102.53547	-329.86757	102.53547
11000.00000	102.22589	-332.72059	102.22589
11050.00000	101.76664	-335.25041	101.76664
11100.00000	101.42198	-338.05944	101.42198
11150.00000	100.96155	-340.01119	100.96155
11200.00000	100.63828	-341.84214	100.63828
11250.00000	100.16088	-343.99630	100.16088
11300.00000	99.67533	-345.82445	99.67533
11350.00000	99.24151	-346.98969	99.24151
11400.00000	98.71096	-348.34905	98.71096
11450.00000	98.31143	-349.92931	98.31143
11500.00000	98.04375	-350.19121	98.04375
11550.00000	97.58465	-350.51468	97.58465
11600.00000	97.35017	-351.56265	97.35017
11650.00000	97.00617	-350.62405	97.00617
11700.00000	96.76260	-350.51912	96.76260
11750.00000	96.52319	-350.49064	96.52319
11800.00000	96.29336	-350.79620	96.29336
11850.00000	96.17947	-349.83576	96.17947
11900.00000	95.86064	-350.14783	95.86064
11950.00000	95.77192	-349.78739	95.77192
12000.00000	95.60352	-349.13033	95.60352
12050.00000	95.43159	-348.57394	95.43159
12100.00000	95.39756	-349.11156	95.39756
12150.00000	95.31017	-349.28013	95.31017
12200.00000	95.32010	-349.73107	95.32010
12250.00000	95.29495	-349.49859	95.29495
12300.00000	96.45555	-350.08969	96.45555
12350.00000	95.35059	-350.18279	95.35059
12400.00000	95.38697	-349.74483	95.38697
12450.00000	95.40961	-349.62275	95.40961
12500.00000	95.43420	-350.35921	95.43420
12550.00000	95.49553	-350.96710	95.49553
12600.00000	95.42153	-352.12994	95.42153
12650.00000	95.62010	-352.73313	95.62010
12700.00000	95.57008	-353.67531	95.57008
12750.00000	95.62269	-355.30284	95.62269
12800.00000	95.63527	-355.97176	95.63527
12850.00000	95.39449	-356.63538	95.39449
12900.00000	95.46736	-358.14044	95.46736
12950.00000	95.52328	-359.42826	95.52328
13000.00000	95.50998	-360.86172	95.50998
13050.00000	95.57525	-360.79008	95.57525
13100.00000	95.47762	-362.04904	95.47762
13150.00000	95.58561	-363.92139	95.58561
13200.00000	95.56466	-363.66344	95.56466
13250.00000	95.55055	-364.61803	95.55055
13300.00000	95.51238	-363.56448	95.51238
13350.00000	95.54111	-365.19712	95.54111
13400.00000	95.68571	-366.33718	95.68571
13450.00000	95.53990	-366.14281	95.53990
13500.00000	95.69231	-365.60890	95.69231
13550.00000	95.56045	-367.12707	95.56045
13600.00000	95.64475	-367.62230	95.64475
13650.00000	95.71678	-368.65286	95.71678
13700.00000	95.65022	-369.62974	95.65022
13750.00000	95.64323	-370.47562	95.64323
13800.00000	95.63415	-372.45045	95.63415
13850.00000	95.66178	-374.36722	95.66178
13900.00000	95.60321	-374.90710	95.60321
13950.00000	95.78270	-375.70641	95.78270
14000.00000	96.06257	-375.36364	96.06257
14050.00000	96.12320	-376.57823	96.12320
14100.00000	96.03882	-376.90160	96.03882
14150.00000	96.21984	-377.61830	96.21984
14200.00000	96.32082	-378.15568	96.32082
14250.00000	96.62136	-377.30753	96.62136
14300.00000	96.61446	-378.84776	96.61446
14350.00000	96.71087	-378.04693	96.71087
14400.00000	96.47724	-379.12845	96.47724
14450.00000	96.60391	-378.68712	96.60391
14500.00000	96.65337	-379.93195	96.65337
14550.00000	96.84514	-379.74287	96.84514
14600.00000	96.83667	-381.56830	96.83667
14650.00000	97.22854	-379.82982	97.22854
14700.00000	97.38124	-384.29494	97.38124
14750.00000	97.55869	-384.30424	97.55869
14800.00000	97.67622	-383.86781	97.67622
14850.00000	98.03429	-383.68589	98.03429
14900.00000	98.34353	-384.53220	98.34353
14950.00000	98.60090	-385.31773	98.60090
15000.00000	98.97043	-386.04696	98.97043
15050.00000	99.03954	-385.69429	99.03954
15100.00000	99.34268	-385.82697	99.34268
15150.00000	99.81344	-387.48580	99.81344
15200.00000	100.02884	-387.15906	100.02884
15250.00000	100.30022	-388.98060	100.30022
15300.00000	100.83606	-390.70784	100.83606
15350.00000	101.08668	-393.04781	101.08668
15400.00000	101.37048	-393.80845	101.37048
15450.00000	101.72287	-396.04522	101.72287
15500.00000	102.18191	-397.72957	102.18191
15550.00000	102.53134	-400.03174	102.53134
15600.00000	102.84275	-402.67410	102.84275
15650.00000	103.30769	-403.23368	103.30769
15700.00000	103.41342	-407.10337	103.41342
15750.00000	103.86005	-409.39258	103.86005
15800.00000	104.15672	-411.09737	104.15672
15850.00000	104.44074	-413.57729	104.44074
15900.00000	104.64800	-416.79404	104.64800
15950.00000	104.95830	-419.42928	104.95830
16000.00000	105.17045	-422.06066	105.17045
16050.00000	105.49038	-424.72314	105.49038
16100.00000	105.57142	-427.90004	105.57142
16150.00000	105.75940	-430.79316	105.75940
16200.00000	105.99462	-434.32185	105.99462
16250.00000	106.21811	-436.76109	106.21811
16300.00000	106.54511	-439.69003	106.54511
16350.00000	106.66847	-442.54835	106.66847
16400.00000	106.86760	-445.09392	106.86760
16450.00000	107.01634	-448.00242	107.01634
16500.00000	107.16868	-450.90324	107.16868
16550.00000	107.40524	-454.38801	107.40524
16600.00000	107.55630	-456.87545	107.55630
16650.00000	107.65875	-459.80260	107.65875
16700.00000	107.83180	-462.51121	107.83180
16750.00000	107.87915	-465.78909	107.87915
16800.00000	108.06896	-468.99420	108.06896
16850.00000	108.29699	-471.78898	108.29699
16900.00000	108.44494	-474.85865	108.44494
16950.00000	108.57834	-477.83786	108.57834
17000.00000	108.58306	-480.86723	108.58306
17050.00000	108.75970	-483.24831	108.75970
17100.00000	108.80988	-485.58832	108.80988
17150.00000	109.06465	-489.22616	109.06465
17200.00000	109.18096	-492.09699	109.18096
17250.00000	109.25230	-495.59381	109.25230
17300.00000	109.44429	-498.64994	109.44429
17350.00000	109.43508	-501.54431	109.43508
17400.00000	109.60896	-504.73685	109.60896
17450.00000	109.65263	-508.29186	109.65263
17500.00000	109.79104	-511.37036	109.79104
17550.00000	109.87562	-514.64676	109.87562
17600.00000	110.04681	-517.55248	110.04681
17650.00000	110.11260	-521.75250	110.11260
17700.00000	110.14983	-525.20891	110.14983
17750.00000	110.33278	-527.86546	110.33278
17800.00000	110.28370	-531.93948	110.28370
17850.00000	110.34165	-535.09380	110.34165
17900.00000	110.33582	-538.64893	110.33582
17950.00000	110.46408	-542.35873	110.46408
18000.00000	110.45122	-546.38164	110.45122
18050.00000	110.57760	-549.39839	110.57760
18100.00000	110.49004	-553.44993	110.49004
18150.00000	110.45564	-556.43756	110.45564
18200.00000	110.36773	-560.57527	110.36773
18250.00000	110.41168	-563.21174	110.41168
18300.00000	110.41219	-566.72446	110.41219
18350.00000	110.33543	-570.06400	110.33543
18400.00000	110.21729	-573.72025	110.21729
18450.00000	110.11506	-578.28764	110.11506
18500.00000	110.06285	-581.37837	110.06285
18550.00000	109.94334	-584.16658	109.94334
18600.00000	109.93527	-587.83687	109.93527
18650.00000	109.67549	-590.75148	109.67549
18700.00000	109.55871	-594.42071	109.55871
18750.00000	109.50325	-597.32874	109.50325
18800.00000	109.48020	-599.64318	109.48020
18850.00000	109.22628	-602.93933	109.22628
18900.00000	109.07790	-605.58441	109.07790
18950.00000	108.98455	-608.98393	108.98455
19000.00000	108.73318	-611.41502	108.73318
19050.00000	108.73773	-614.08755	108.73773
19100.00000	108.55508	-616.53422	108.55508
19150.00000	108.56242	-618.93456	108.56242
19200.00000	108.42619	-621.34833	108.42619
19250.00000	108.30158	-624.89738	108.30158
19300.00000	108.14165	-626.61661	108.14165
19350.00000	108.06116	-629.21448	108.06116
19400.00000	107.91910	-631.49031	107.91910
19450.00000	107.91453	-633.43756	107.91453
19500.00000	107.75973	-636.78497	107.75973
19550.00000	107.68149	-639.02858	107.68149
19600.00000	107.68829	-641.94123	107.68829
19650.00000	107.53703	-644.05996	107.53703
19700.00000	107.34769	-646.65296	107.34769
19750.00000	107.27765	-648.56723	107.27765
19800.00000	107.28380	-651.91318	107.28380
19850.00000	107.23053	-654.04502	107.23053
19900.00000	107.08901	-657.36086	107.08901
19950.00000	106.95701	-659.78255	106.95701
20000.00000	106.89941	-662.41766	106.89941
20050.00000	106.82557	-664.92619	106.82557
20100.00000	106.64841	-667.59192	106.64841
20150.00000	106.58975	-669.30173	106.58975
20200.00000	106.45206	-672.69796	106.45206
20250.00000	106.29334	-675.22225	106.29334
20300.00000	106.10008	-677.79766	106.10008
20350.00000	106.03991	-680.53725	106.03991
20400.00000	105.82167	-682.28687	105.82167
20450.00000	105.58107	-684.96717	105.58107
20500.00000	105.48194	-687.66275	105.48194
20550.00000	105.09175	-689.27832	105.09175
20600.00000	104.98718	-691.21140	104.98718
20650.00000	104.78042	-693.43894	104.78042
20700.00000	104.51419	-695.32278	104.51419
20750.00000	104.38305	-697.06894	104.38305
20800.00000	104.12158	-698.35180	104.12158
20850.00000	103.96791	-699.90482	103.96791
20900.00000	103.68508	-701.23939	103.68508
20950.00000	103.47554	-701.96489	103.47554
21000.00000	103.29489	-702.71858	103.29489
21050.00000	103.28549	-703.15828	103.28549
21100.00000	103.11678	-703.46604	103.11678
21150.00000	103.08582	-704.38477	103.08582
21200.00000	103.08043	-704.62801	103.08043
21250.00000	103.05325	-706.35268	103.05325
21300.00000	103.11648	-706.43026	103.11648
21350.00000	103.10463	-707.01368	103.10463
21400.00000	103.13049	-708.49144	103.13049
21450.00000	103.20959	-709.59463	103.20959
21500.00000	103.29105	-711.04353	103.29105
21550.00000	103.24896	-712.05570	103.24896
21600.00000	103.37802	-713.59837	103.37802
21650.00000	103.38005	-715.38428	103.38005
21700.00000	103.45093	-716.68517	103.45093
21750.00000	103.52823	-718.33289	103.52823
21800.00000	103.53513	-719.80800	103.53513
21850.00000	103.50552	-721.36857	103.50552
21900.00000	103.56466	-723.31345	103.56466
21950.00000	103.59014	-724.61899	103.59014
22000.00000	103.69364	-725.93149	103.69364
22050.00000	103.67736	-727.12405	103.67736
22100.00000	103.67619	-729.04263	103.67619
22150.00000	103.72621	-730.49479	103.72621
22200.00000	103.84642	-732.09274	103.84642
22250.00000	103.84432	-733.05348	103.84432
22300.00000	103.77226	-734.78560	103.77226
22350.00000	103.93415	-736.73350	103.93415
22400.00000	104.04310	-738.50536	104.04310
22450.00000	104.04263	-739.70020	104.04263
22500.00000	104.03833	-740.25870	104.03833
22550.00000	104.05939	-742.32633	104.05939
22600.00000	104.15821	-744.97539	104.15821
22650.00000	104.21449	-746.48245	104.21449
22700.00000	104.29787	-748.01592	104.29787
