---ACOUSTIC CALIBRATION---
Filename: C:\Data\AZH DATA\AZH51\RightPrimary.calib
Date: 8/27/2019 11:16:22 AM
Format: 4
Probe Tube Correction File: C:\Data\Probe Tube Calibrations\50_ProbeTube.calib
Experiment VIs: 850
EPL_CFTS.exe V12.0.1 (2012)
DAQmx V9.6

Attenuation (dB): 40.000000
Min Freq (Hz): 50.000000
Max Freq (Hz): 49950.000000
Freq Step (Hz): 50.000000
Sample Rate (Hz): 100000.000000
[Smoothing]
Method=None
MA.Iterations=0
MA.Length=0
Loess.Length=0
Loess.Type=Linear
Loess.Robust=FALSE


Freq(Hz)	Mag(dB)	Phase(deg)	Unsmoothed(dB)

50.00000	103.89403	421.43447	103.89403
100.00000	87.23752	568.78244	87.23752
150.00000	81.16479	480.67555	81.16479
200.00000	79.88166	460.69313	79.88166
250.00000	92.08422	435.04222	92.08422
300.00000	88.29719	388.82805	88.29719
350.00000	88.48549	362.01902	88.48549
400.00000	90.55559	361.65489	90.55559
450.00000	89.90104	343.17213	89.90104
500.00000	91.71584	363.67381	91.71584
550.00000	94.52298	355.59191	94.52298
600.00000	96.90989	350.50666	96.90989
650.00000	99.25879	335.44857	99.25879
700.00000	101.94315	323.14862	101.94315
750.00000	103.20973	306.80556	103.20973
800.00000	103.74366	284.25021	103.74366
850.00000	103.38708	266.60012	103.38708
900.00000	101.63563	249.65057	101.63563
950.00000	99.80290	250.02879	99.80290
1000.00000	98.30037	251.46333	98.30037
1050.00000	96.77587	269.11669	96.77587
1100.00000	98.45967	287.16695	98.45967
1150.00000	101.30113	293.77639	101.30113
1200.00000	103.92567	293.23946	103.92567
1250.00000	105.68398	284.90291	105.68398
1300.00000	107.26330	279.95380	107.26330
1350.00000	108.71579	270.65284	108.71579
1400.00000	109.59881	263.30285	109.59881
1450.00000	110.66834	256.90882	110.66834
1500.00000	111.73921	250.06997	111.73921
1550.00000	112.57374	241.70451	112.57374
1600.00000	114.19663	231.86463	114.19663
1650.00000	115.06166	215.40694	115.06166
1700.00000	113.89973	204.97861	113.89973
1750.00000	113.58271	199.63403	113.58271
1800.00000	113.39522	195.69135	113.39522
1850.00000	113.64730	193.96786	113.64730
1900.00000	114.76714	189.24720	114.76714
1950.00000	115.38451	175.28907	115.38451
2000.00000	114.28595	163.26664	114.28595
2050.00000	112.96163	168.18985	112.96163
2100.00000	114.75761	168.76850	114.75761
2150.00000	115.44777	156.90330	115.44777
2200.00000	115.30395	147.11585	115.30395
2250.00000	114.70486	139.91926	114.70486
2300.00000	114.73524	134.48686	114.73524
2350.00000	114.44989	128.16288	114.44989
2400.00000	114.12268	122.50721	114.12268
2450.00000	113.64648	115.94471	113.64648
2500.00000	113.30146	111.26526	113.30146
2550.00000	112.80941	106.50851	112.80941
2600.00000	112.30486	102.68684	112.30486
2650.00000	111.70435	98.90391	111.70435
2700.00000	111.13522	95.27082	111.13522
2750.00000	110.34233	92.40981	110.34233
2800.00000	109.56054	89.96980	109.56054
2850.00000	108.70007	88.97253	108.70007
2900.00000	107.75200	88.80898	107.75200
2950.00000	106.76250	90.40376	106.76250
3000.00000	105.76070	93.86145	105.76070
3050.00000	104.71276	100.72661	104.71276
3100.00000	104.02357	111.94750	104.02357
3150.00000	104.22618	124.08440	104.22618
3200.00000	105.29643	137.64456	105.29643
3250.00000	107.09331	144.00975	107.09331
3300.00000	108.83981	148.53115	108.83981
3350.00000	110.73581	153.69522	110.73581
3400.00000	112.26882	152.27871	112.26882
3450.00000	114.28290	150.26520	114.28290
3500.00000	116.23675	144.59021	116.23675
3550.00000	117.67175	136.92689	117.67175
3600.00000	118.96589	129.40348	118.96589
3650.00000	120.01367	120.73841	120.01367
3700.00000	120.86055	112.23881	120.86055
3750.00000	121.56551	103.55553	121.56551
3800.00000	122.04765	94.78877	122.04765
3850.00000	122.36167	87.11392	122.36167
3900.00000	122.70069	80.66996	122.70069
3950.00000	123.14862	74.21345	123.14862
4000.00000	123.61411	67.41722	123.61411
4050.00000	124.08150	60.40110	124.08150
4100.00000	124.55641	52.92878	124.55641
4150.00000	125.15978	44.64039	125.15978
4200.00000	125.41751	35.22680	125.41751
4250.00000	125.61731	25.52930	125.61731
4300.00000	125.64916	15.72169	125.64916
4350.00000	125.49823	 6.19337	125.49823
4400.00000	125.24266	-2.61295	125.24266
4450.00000	124.90774	-10.80559	124.90774
4500.00000	124.55852	-18.44497	124.55852
4550.00000	124.20518	-26.01385	124.20518
4600.00000	123.79020	-33.30249	123.79020
4650.00000	123.42466	-40.48544	123.42466
4700.00000	122.96211	-48.12867	122.96211
4750.00000	122.31563	-55.98090	122.31563
4800.00000	121.48138	-63.52835	121.48138
4850.00000	120.42488	-69.77498	120.42488
4900.00000	119.23611	-74.07043	119.23611
4950.00000	118.11242	-75.84692	118.11242
5000.00000	117.10833	-76.24102	117.10833
5050.00000	116.31503	-76.17071	116.31503
5100.00000	115.46555	-72.74482	115.46555
5150.00000	115.68451	-69.05108	115.68451
5200.00000	115.82507	-66.73348	115.82507
5250.00000	116.94498	-69.86393	116.94498
5300.00000	116.84565	-78.28464	116.84565
5350.00000	116.28082	-82.67982	116.28082
5400.00000	115.76680	-84.86397	115.76680
5450.00000	115.47535	-86.18006	115.47535
5500.00000	115.22760	-87.65912	115.22760
5550.00000	115.06375	-88.77584	115.06375
5600.00000	114.92257	-90.46063	114.92257
5650.00000	114.84267	-91.67395	114.84267
5700.00000	114.78621	-93.29530	114.78621
5750.00000	114.81369	-94.80233	114.81369
5800.00000	114.89282	-96.60215	114.89282
5850.00000	114.99211	-99.11352	114.99211
5900.00000	115.07948	-101.73487	115.07948
5950.00000	115.13655	-105.08668	115.13655
6000.00000	115.10461	-108.12224	115.10461
6050.00000	115.05532	-111.31316	115.05532
6100.00000	115.00158	-114.27806	115.00158
6150.00000	114.91783	-117.17898	114.91783
6200.00000	114.82089	-120.00981	114.82089
6250.00000	114.79307	-122.66772	114.79307
6300.00000	114.71329	-125.81316	114.71329
6350.00000	114.63975	-128.52534	114.63975
6400.00000	114.54780	-131.23313	114.54780
6450.00000	114.51170	-134.04743	114.51170
6500.00000	114.44432	-136.90809	114.44432
6550.00000	114.37296	-139.64250	114.37296
6600.00000	114.32042	-142.31851	114.32042
6650.00000	114.27456	-145.10577	114.27456
6700.00000	114.24182	-148.00949	114.24182
6750.00000	114.22459	-150.86576	114.22459
6800.00000	114.22384	-153.78504	114.22384
6850.00000	114.21349	-156.71293	114.21349
6900.00000	114.20396	-159.63577	114.20396
6950.00000	114.18308	-162.71384	114.18308
7000.00000	114.20432	-165.87232	114.20432
7050.00000	114.18185	-169.27055	114.18185
7100.00000	114.18789	-172.73088	114.18789
7150.00000	114.17886	-176.20731	114.17886
7200.00000	114.18669	-179.79502	114.18669
7250.00000	114.07216	-183.67182	114.07216
7300.00000	114.06568	-187.56561	114.06568
7350.00000	113.97746	-191.46829	113.97746
7400.00000	113.91602	-195.72775	113.91602
7450.00000	113.77861	-199.90518	113.77861
7500.00000	113.66664	-204.31473	113.66664
7550.00000	113.49926	-208.56922	113.49926
7600.00000	113.29095	-212.75465	113.29095
7650.00000	113.06288	-217.03986	113.06288
7700.00000	112.84173	-221.31078	112.84173
7750.00000	112.54337	-225.50433	112.54337
7800.00000	112.22299	-229.64461	112.22299
7850.00000	111.90561	-233.61016	111.90561
7900.00000	111.56939	-237.18626	111.56939
7950.00000	111.23832	-240.96786	111.23832
8000.00000	110.86888	-244.43963	110.86888
8050.00000	110.52363	-248.02284	110.52363
8100.00000	110.16914	-250.61299	110.16914
8150.00000	109.73266	-253.41436	109.73266
8200.00000	109.36364	-255.83059	109.36364
8250.00000	108.92138	-258.49095	108.92138
8300.00000	108.52973	-260.77925	108.52973
8350.00000	108.06425	-262.85405	108.06425
8400.00000	107.62086	-265.27620	107.62086
8450.00000	107.10241	-267.85077	107.10241
8500.00000	106.65306	-270.23655	106.65306
8550.00000	106.24215	-272.31779	106.24215
8600.00000	105.86093	-275.15261	105.86093
8650.00000	105.46929	-277.31048	105.46929
8700.00000	105.13093	-279.99104	105.13093
8750.00000	104.85231	-280.91107	104.85231
8800.00000	104.57349	-283.01008	104.57349
8850.00000	104.29011	-284.20920	104.29011
8900.00000	104.03022	-284.40815	104.03022
8950.00000	103.71332	-286.04335	103.71332
9000.00000	103.30236	-286.17509	103.30236
9050.00000	102.95002	-287.75050	102.95002
9100.00000	102.51320	-288.86950	102.51320
9150.00000	102.06897	-290.47450	102.06897
9200.00000	101.71831	-292.23545	101.71831
9250.00000	101.38623	-294.30414	101.38623
9300.00000	101.14803	-297.31467	101.14803
9350.00000	101.00902	-298.16580	101.00902
9400.00000	100.88158	-298.58302	100.88158
9450.00000	100.82523	-299.71054	100.82523
9500.00000	100.74914	-299.02267	100.74914
9550.00000	100.77612	-298.34708	100.77612
9600.00000	100.78312	-298.96402	100.78312
9650.00000	100.54376	-299.72377	100.54376
9700.00000	100.26523	-299.54681	100.26523
9750.00000	100.06672	-301.08886	100.06672
9800.00000	99.77303	-302.16181	99.77303
9850.00000	99.56735	-303.44830	99.56735
9900.00000	99.26602	-305.57356	99.26602
9950.00000	99.22138	-306.86750	99.22138
10000.00000	99.18550	-308.89776	99.18550
10050.00000	99.15964	-309.92709	99.15964
10100.00000	99.12384	-310.43104	99.12384
10150.00000	98.98610	-311.66843	98.98610
10200.00000	98.86864	-311.91187	98.86864
10250.00000	98.63316	-313.02535	98.63316
10300.00000	98.56331	-314.28523	98.56331
10350.00000	98.33498	-315.67515	98.33498
10400.00000	98.11570	-317.76741	98.11570
10450.00000	98.11701	-320.20409	98.11701
10500.00000	98.12964	-322.41474	98.12964
10550.00000	98.17613	-324.85061	98.17613
10600.00000	98.19021	-326.09710	98.19021
10650.00000	98.13160	-327.34308	98.13160
10700.00000	98.13153	-329.53397	98.13153
10750.00000	98.08331	-331.17039	98.08331
10800.00000	97.91021	-332.66104	97.91021
10850.00000	97.75001	-335.52161	97.75001
10900.00000	97.61171	-337.82378	97.61171
10950.00000	97.46781	-339.94716	97.46781
11000.00000	97.29585	-342.27318	97.29585
11050.00000	97.02420	-344.69975	97.02420
11100.00000	96.84569	-347.19251	96.84569
11150.00000	96.57948	-349.05150	96.57948
11200.00000	96.39240	-350.70995	96.39240
11250.00000	96.03997	-353.05784	96.03997
11300.00000	95.69667	-355.41209	95.69667
11350.00000	95.34877	-356.71910	95.34877
11400.00000	94.91746	-358.46352	94.91746
11450.00000	94.59343	-360.72206	94.59343
11500.00000	94.39102	-361.59018	94.39102
11550.00000	93.99775	-362.71268	93.99775
11600.00000	93.81179	-363.97012	93.81179
11650.00000	93.42015	-363.74579	93.42015
11700.00000	93.16688	-364.30722	93.16688
11750.00000	92.96017	-365.29833	92.96017
11800.00000	92.71110	-365.97233	92.71110
11850.00000	92.56491	-365.65027	92.56491
11900.00000	92.21088	-366.52489	92.21088
11950.00000	92.01793	-366.27374	92.01793
12000.00000	91.74458	-366.58527	91.74458
12050.00000	91.52979	-366.04380	91.52979
12100.00000	91.27038	-367.40957	91.27038
12150.00000	91.01036	-368.31638	91.01036
12200.00000	90.85018	-368.68995	90.85018
12250.00000	90.82964	-368.94180	90.82964
12300.00000	91.76123	-369.22112	91.76123
12350.00000	90.62857	-369.57413	90.62857
12400.00000	90.40669	-368.45451	90.40669
12450.00000	90.22352	-367.74735	90.22352
12500.00000	89.97262	-368.57603	89.97262
12550.00000	89.83381	-369.30553	89.83381
12600.00000	89.54009	-370.33834	89.54009
12650.00000	89.62418	-370.21292	89.62418
12700.00000	89.47695	-370.52423	89.47695
12750.00000	89.41979	-371.76876	89.41979
12800.00000	89.23705	-370.69442	89.23705
12850.00000	88.68075	-369.96025	88.68075
12900.00000	88.63349	-371.01825	88.63349
12950.00000	88.47358	-370.07487	88.47358
13000.00000	88.12411	-371.80256	88.12411
13050.00000	88.08809	-370.37995	88.08809
13100.00000	88.04974	-370.44729	88.04974
13150.00000	88.09150	-369.28909	88.09150
13200.00000	87.99921	-367.56232	87.99921
13250.00000	87.91617	-367.23318	87.91617
13300.00000	87.72660	-364.27362	87.72660
13350.00000	87.72690	-363.79107	87.72690
13400.00000	87.73580	-363.21920	87.73580
13450.00000	87.64248	-361.72982	87.64248
13500.00000	87.82587	-361.22027	87.82587
13550.00000	87.71637	-360.26490	87.71637
13600.00000	87.66454	-358.27172	87.66454
13650.00000	88.11226	-357.46431	88.11226
13700.00000	87.87571	-356.08564	87.87571
13750.00000	87.77442	-354.32209	87.77442
13800.00000	87.86652	-355.55248	87.86652
13850.00000	87.83918	-356.08246	87.83918
13900.00000	88.10896	-355.84161	88.10896
13950.00000	88.49831	-355.10139	88.49831
14000.00000	88.97095	-352.05704	88.97095
14050.00000	89.13860	-350.60639	89.13860
14100.00000	89.14071	-349.11196	89.14071
14150.00000	89.17191	-348.65671	89.17191
14200.00000	89.42324	-348.57480	89.42324
14250.00000	90.13144	-345.95691	90.13144
14300.00000	90.52732	-345.83534	90.52732
14350.00000	90.85885	-344.15058	90.85885
14400.00000	90.91248	-343.69749	90.91248
14450.00000	91.12104	-341.35992	91.12104
14500.00000	91.42153	-341.81299	91.42153
14550.00000	91.92969	-341.52379	91.92969
14600.00000	92.21239	-342.85316	92.21239
14650.00000	92.91374	-341.04690	92.91374
14700.00000	93.33460	-344.79093	93.33460
14750.00000	93.91843	-344.99300	93.91843
14800.00000	94.28324	-344.26716	94.28324
14850.00000	94.80158	-344.37959	94.80158
14900.00000	95.38959	-345.15594	95.38959
14950.00000	95.80401	-346.73382	95.80401
15000.00000	96.40017	-348.15555	96.40017
15050.00000	96.81725	-348.34345	96.81725
15100.00000	97.33597	-348.82440	97.33597
15150.00000	98.04905	-350.53504	98.04905
15200.00000	98.44475	-350.35207	98.44475
15250.00000	98.73144	-353.24666	98.73144
15300.00000	99.39103	-356.21789	99.39103
15350.00000	99.86167	-359.55246	99.86167
15400.00000	100.28554	-360.72733	100.28554
15450.00000	100.75097	-363.47777	100.75097
15500.00000	101.32793	-365.93794	101.32793
15550.00000	101.77564	-369.07211	101.77564
15600.00000	102.13625	-372.24942	102.13625
15650.00000	102.65960	-373.85164	102.65960
15700.00000	102.88860	-378.35234	102.88860
15750.00000	103.34278	-381.23457	103.34278
15800.00000	103.77700	-383.52712	103.77700
15850.00000	104.07892	-386.64208	104.07892
15900.00000	104.26392	-390.34391	104.26392
15950.00000	104.59679	-393.77183	104.59679
16000.00000	104.88961	-397.10776	104.88961
16050.00000	105.26472	-400.26072	105.26472
16100.00000	105.40180	-403.85356	105.40180
16150.00000	105.61855	-407.04151	105.61855
16200.00000	105.84410	-411.06313	105.84410
16250.00000	106.06285	-414.05204	106.06285
16300.00000	106.43308	-417.60434	106.43308
16350.00000	106.57610	-420.93267	106.57610
16400.00000	106.77395	-424.13435	106.77395
16450.00000	106.96010	-427.09123	106.96010
16500.00000	107.07562	-430.45138	107.07562
16550.00000	107.29918	-434.48069	107.29918
16600.00000	107.46044	-437.62237	107.46044
16650.00000	107.57275	-440.86349	107.57275
16700.00000	107.75934	-443.77730	107.75934
16750.00000	107.78469	-447.49544	107.78469
16800.00000	107.93702	-450.92842	107.93702
16850.00000	108.14017	-454.12747	108.14017
16900.00000	108.27431	-457.56679	108.27431
16950.00000	108.39734	-460.75917	108.39734
17000.00000	108.39084	-464.07366	108.39084
17050.00000	108.54956	-466.60953	108.54956
17100.00000	108.56147	-468.73826	108.56147
17150.00000	108.78025	-472.70560	108.78025
17200.00000	108.88173	-475.69646	108.88173
17250.00000	108.92584	-479.56583	108.92584
17300.00000	109.11183	-482.49417	109.11183
17350.00000	109.06666	-485.35071	109.06666
17400.00000	109.24129	-488.62765	109.24129
17450.00000	109.24831	-492.22417	109.24831
17500.00000	109.37406	-495.38386	109.37406
17550.00000	109.45285	-498.62884	109.45285
17600.00000	109.61533	-501.44463	109.61533
17650.00000	109.66225	-505.48652	109.66225
17700.00000	109.70280	-509.08983	109.70280
17750.00000	109.88917	-511.72124	109.88917
17800.00000	109.82435	-515.77709	109.82435
17850.00000	109.90174	-518.78919	109.90174
17900.00000	109.90039	-522.25207	109.90039
17950.00000	110.00534	-526.05996	110.00534
18000.00000	110.00893	-529.96053	110.00893
18050.00000	110.13835	-532.98291	110.13835
18100.00000	110.06707	-537.10720	110.06707
18150.00000	110.05328	-539.92795	110.05328
18200.00000	109.96190	-544.04508	109.96190
18250.00000	110.00404	-546.85353	110.00404
18300.00000	110.01445	-550.19009	110.01445
18350.00000	109.98169	-553.59184	109.98169
18400.00000	109.86041	-557.29819	109.86041
18450.00000	109.75266	-561.59517	109.75266
18500.00000	109.70746	-564.85135	109.70746
18550.00000	109.62519	-567.60790	109.62519
18600.00000	109.64834	-571.27021	109.64834
18650.00000	109.41066	-574.24852	109.41066
18700.00000	109.30621	-577.77737	109.30621
18750.00000	109.25215	-580.89611	109.25215
18800.00000	109.25709	-583.38466	109.25709
18850.00000	109.03824	-586.67344	109.03824
18900.00000	108.91371	-589.52834	108.91371
18950.00000	108.81487	-593.02272	108.81487
19000.00000	108.56152	-595.40055	108.56152
19050.00000	108.58693	-598.32631	108.58693
19100.00000	108.41922	-600.95200	108.41922
19150.00000	108.44267	-603.50143	108.44267
19200.00000	108.30160	-605.93027	108.30160
19250.00000	108.17208	-609.56382	108.17208
19300.00000	107.99984	-611.56389	107.99984
19350.00000	107.92372	-614.33423	107.92372
19400.00000	107.76894	-616.76231	107.76894
19450.00000	107.76909	-618.84094	107.76909
19500.00000	107.57873	-622.25635	107.57873
19550.00000	107.51440	-624.61031	107.51440
19600.00000	107.48015	-627.67268	107.48015
19650.00000	107.31956	-629.75775	107.31956
19700.00000	107.13290	-632.34389	107.13290
19750.00000	107.01449	-634.43758	107.01449
19800.00000	107.00253	-637.73667	107.00253
19850.00000	106.91313	-639.92034	106.91313
19900.00000	106.77299	-643.15143	106.77299
19950.00000	106.63336	-645.52525	106.63336
20000.00000	106.52578	-648.07369	106.52578
20050.00000	106.42083	-650.51969	106.42083
20100.00000	106.22609	-653.10504	106.22609
20150.00000	106.14743	-654.71598	106.14743
20200.00000	105.97672	-657.90620	105.97672
20250.00000	105.79285	-660.17384	105.79285
20300.00000	105.57301	-662.50224	105.57301
20350.00000	105.49760	-665.05565	105.49760
20400.00000	105.28091	-666.51947	105.28091
20450.00000	105.03722	-668.71694	105.03722
20500.00000	104.92074	-671.07658	104.92074
20550.00000	104.52631	-672.19359	104.52631
20600.00000	104.42249	-673.80636	104.42249
20650.00000	104.25733	-675.40733	104.25733
20700.00000	104.01908	-676.71933	104.01908
20750.00000	103.90897	-678.00507	103.90897
20800.00000	103.71029	-678.73723	103.71029
20850.00000	103.63595	-679.85800	103.63595
20900.00000	103.44139	-680.69489	103.44139
20950.00000	103.34460	-680.95657	103.34460
21000.00000	103.26600	-681.45194	103.26600
21050.00000	103.36730	-681.69160	103.36730
21100.00000	103.34705	-682.06291	103.34705
21150.00000	103.47629	-682.92874	103.47629
21200.00000	103.59824	-683.34752	103.59824
21250.00000	103.69685	-685.43402	103.69685
21300.00000	103.88666	-686.04250	103.88666
21350.00000	104.00613	-687.23562	104.00613
21400.00000	104.12485	-689.39122	104.12485
21450.00000	104.28839	-691.22846	104.28839
21500.00000	104.40989	-693.61116	104.40989
21550.00000	104.41716	-695.41833	104.41716
21600.00000	104.56629	-697.82389	104.56629
21650.00000	104.58624	-700.45559	104.58624
21700.00000	104.63257	-702.30783	104.63257
21750.00000	104.66608	-704.78365	104.66608
21800.00000	104.68479	-707.15855	104.68479
21850.00000	104.61430	-709.40520	104.61430
21900.00000	104.62734	-711.63714	104.62734
21950.00000	104.59746	-713.60415	104.59746
22000.00000	104.62516	-715.54178	104.62516
22050.00000	104.56333	-717.08616	104.56333
22100.00000	104.52462	-719.39203	104.52462
22150.00000	104.50547	-721.10289	104.50547
22200.00000	104.54804	-722.96146	104.54804
22250.00000	104.47160	-724.34148	104.47160
22300.00000	104.37586	-726.23388	104.37586
22350.00000	104.48534	-728.28921	104.48534
22400.00000	104.49353	-730.04761	104.49353
22450.00000	104.42881	-731.71649	104.42881
22500.00000	104.36689	-732.43540	104.36689
22550.00000	104.37834	-734.60303	104.37834
22600.00000	104.36546	-737.08548	104.36546
22650.00000	104.37071	-738.88550	104.37071
22700.00000	104.38715	-740.09284	104.38715
22750.00000	104.35803	-740.43742	104.35803
