---ACOUSTIC CALIBRATION---
Filename: C:\Data\AZH DATA\AZH51\RightPrimary.calib
Date: 8/27/2019 11:15:36 AM
Format: 4
Probe Tube Correction File: C:\Data\Probe Tube Calibrations\50_ProbeTube.calib
Experiment VIs: 850
EPL_CFTS.exe V12.0.1 (2012)
DAQmx V9.6

Attenuation (dB): 40.000000
Min Freq (Hz): 50.000000
Max Freq (Hz): 49950.000000
Freq Step (Hz): 50.000000
Sample Rate (Hz): 100000.000000
[Smoothing]
Method=None
MA.Iterations=0
MA.Length=0
Loess.Length=0
Loess.Type=Linear
Loess.Robust=FALSE


Freq(Hz)	Mag(dB)	Phase(deg)	Unsmoothed(dB)

50.00000	91.25892	328.70118	91.25892
100.00000	73.51608	402.52005	73.51608
150.00000	83.01737	479.14225	83.01737
200.00000	74.59724	506.94221	74.59724
250.00000	88.70055	458.14334	88.70055
300.00000	86.97330	459.15615	86.97330
350.00000	79.00674	434.94858	79.00674
400.00000	78.62180	365.79816	78.62180
450.00000	83.87472	343.75389	83.87472
500.00000	84.56995	377.99748	84.56995
550.00000	90.45451	359.83725	90.45451
600.00000	93.17497	358.05095	93.17497
650.00000	95.18448	346.60936	95.18448
700.00000	97.18710	332.50238	97.18710
750.00000	99.04886	317.02265	99.04886
800.00000	99.82845	291.78257	99.82845
850.00000	99.23335	276.16907	99.23335
900.00000	97.77768	259.41127	97.77768
950.00000	95.98892	257.81842	95.98892
1000.00000	94.14556	258.62876	94.14556
1050.00000	92.97140	274.04038	92.97140
1100.00000	94.83317	295.34012	94.83317
1150.00000	97.70870	298.85864	97.70870
1200.00000	100.39026	297.31579	100.39026
1250.00000	102.27071	290.48032	102.27071
1300.00000	103.73715	284.30649	103.73715
1350.00000	104.98096	274.99342	104.98096
1400.00000	105.74494	268.20816	105.74494
1450.00000	106.71357	261.42920	106.71357
1500.00000	107.88218	255.25612	107.88218
1550.00000	108.78039	246.82683	108.78039
1600.00000	110.16688	236.26967	110.16688
1650.00000	111.12375	219.88067	111.12375
1700.00000	109.84921	209.42013	109.84921
1750.00000	109.61131	204.31059	109.61131
1800.00000	109.32994	200.36657	109.32994
1850.00000	109.43438	199.66953	109.43438
1900.00000	110.57603	194.92297	110.57603
1950.00000	111.21159	182.45115	111.21159
2000.00000	110.23134	170.60457	110.23134
2050.00000	108.89012	175.47822	108.89012
2100.00000	110.74595	175.10042	110.74595
2150.00000	111.40443	164.29664	111.40443
2200.00000	111.35907	154.21721	111.35907
2250.00000	110.75912	147.66335	110.75912
2300.00000	110.85223	142.05290	110.85223
2350.00000	110.59163	135.85554	110.59163
2400.00000	110.28850	130.27116	110.28850
2450.00000	109.97218	123.69436	109.97218
2500.00000	109.56900	118.72573	109.56900
2550.00000	109.06925	113.45239	109.06925
2600.00000	108.48484	109.34970	108.48484
2650.00000	107.93187	105.28693	107.93187
2700.00000	107.18342	101.43337	107.18342
2750.00000	106.53683	98.25796	106.53683
2800.00000	105.68479	95.83286	105.68479
2850.00000	104.77182	94.80159	104.77182
2900.00000	103.76839	94.04946	103.76839
2950.00000	102.69066	95.59356	102.69066
3000.00000	101.51119	98.60720	101.51119
3050.00000	100.00301	105.30588	100.00301
3100.00000	98.96215	118.45987	98.96215
3150.00000	98.97514	136.32756	98.97514
3200.00000	100.61659	152.69420	100.61659
3250.00000	102.85269	160.63635	102.85269
3300.00000	104.80325	164.16442	104.80325
3350.00000	106.74465	165.68954	106.74465
3400.00000	108.82297	166.13530	108.82297
3450.00000	110.90248	162.89571	110.90248
3500.00000	112.84912	156.40256	112.84912
3550.00000	114.27465	148.07366	114.27465
3600.00000	115.53710	140.21944	115.53710
3650.00000	116.52853	131.19142	116.52853
3700.00000	117.32691	122.52083	117.32691
3750.00000	117.96935	113.73622	117.96935
3800.00000	118.42672	105.15965	118.42672
3850.00000	118.71573	97.69321	118.71573
3900.00000	119.05201	91.48466	119.05201
3950.00000	119.51804	85.23616	119.51804
4000.00000	119.97757	78.51819	119.97757
4050.00000	120.45904	71.61172	120.45904
4100.00000	120.94445	64.19007	120.94445
4150.00000	121.55441	55.89088	121.55441
4200.00000	121.78928	46.46826	121.78928
4250.00000	121.96844	36.94529	121.96844
4300.00000	121.98792	27.42098	121.98792
4350.00000	121.82166	18.17921	121.82166
4400.00000	121.55688	 9.78177	121.55688
4450.00000	121.24360	 1.92069	121.24360
4500.00000	120.92894	-5.35989	120.92894
4550.00000	120.63173	-12.54789	120.63173
4600.00000	120.27994	-19.55703	120.27994
4650.00000	119.97633	-26.63140	119.97633
4700.00000	119.59318	-34.34508	119.59318
4750.00000	119.04216	-42.44962	119.04216
4800.00000	118.25979	-50.40005	118.25979
4850.00000	117.19121	-57.15257	117.19121
4900.00000	115.95663	-61.68907	115.95663
4950.00000	114.79452	-63.73952	114.79452
5000.00000	113.75723	-63.92781	113.75723
5050.00000	112.94437	-63.66753	112.94437
5100.00000	112.14953	-60.09878	112.14953
5150.00000	112.41772	-56.35070	112.41772
5200.00000	112.67961	-54.15739	112.67961
5250.00000	113.72012	-59.00978	113.72012
5300.00000	113.47726	-67.40264	113.47726
5350.00000	112.78009	-71.29944	112.78009
5400.00000	112.26218	-73.11226	112.26218
5450.00000	111.91688	-74.36204	111.91688
5500.00000	111.67059	-75.72889	111.67059
5550.00000	111.46583	-76.81966	111.46583
5600.00000	111.29957	-77.92708	111.29957
5650.00000	111.21646	-79.01616	111.21646
5700.00000	111.16450	-80.32439	111.16450
5750.00000	111.20452	-81.75664	111.20452
5800.00000	111.24535	-83.67548	111.24535
5850.00000	111.31928	-86.13161	111.31928
5900.00000	111.35734	-89.02697	111.35734
5950.00000	111.37024	-92.03425	111.37024
6000.00000	111.31860	-94.93103	111.31860
6050.00000	111.21822	-97.84144	111.21822
6100.00000	111.12606	-100.66597	111.12606
6150.00000	111.01954	-103.46544	111.01954
6200.00000	110.88327	-106.08049	110.88327
6250.00000	110.76513	-108.54003	110.76513
6300.00000	110.65227	-111.17416	110.65227
6350.00000	110.52643	-113.66212	110.52643
6400.00000	110.38005	-116.05419	110.38005
6450.00000	110.31426	-118.56219	110.31426
6500.00000	110.17771	-120.99058	110.17771
6550.00000	110.04124	-123.46715	110.04124
6600.00000	109.92462	-125.83267	109.92462
6650.00000	109.82549	-127.99567	109.82549
6700.00000	109.73516	-130.42892	109.73516
6750.00000	109.64938	-132.74748	109.64938
6800.00000	109.56925	-135.06420	109.56925
6850.00000	109.49590	-137.42361	109.49590
6900.00000	109.42112	-139.68650	109.42112
6950.00000	109.34464	-141.84577	109.34464
7000.00000	109.27849	-144.23144	109.27849
7050.00000	109.18723	-146.63159	109.18723
7100.00000	109.12247	-149.14221	109.12247
7150.00000	109.06808	-151.38569	109.06808
7200.00000	108.98542	-153.97580	108.98542
7250.00000	108.89491	-156.61589	108.89491
7300.00000	108.82594	-159.12500	108.82594
7350.00000	108.71005	-161.63338	108.71005
7400.00000	108.62164	-164.30413	108.62164
7450.00000	108.51921	-166.87024	108.51921
7500.00000	108.40147	-169.56667	108.40147
7550.00000	108.28803	-172.08008	108.28803
7600.00000	108.14787	-174.48227	108.14787
7650.00000	108.01054	-176.93706	108.01054
7700.00000	107.90982	-179.42518	107.90982
7750.00000	107.73899	-181.77521	107.73899
7800.00000	107.57822	-183.86053	107.57822
7850.00000	107.42681	-185.93179	107.42681
7900.00000	107.30045	-187.82849	107.30045
7950.00000	107.17630	-189.88440	107.17630
8000.00000	107.06357	-191.90884	107.06357
8050.00000	106.96345	-194.13768	106.96345
8100.00000	106.89443	-195.50590	106.89443
8150.00000	106.79350	-197.49917	106.79350
8200.00000	106.73006	-199.00174	106.73006
8250.00000	106.66098	-200.85250	106.66098
8300.00000	106.64327	-202.53566	106.64327
8350.00000	106.59089	-204.01900	106.59089
8400.00000	106.53168	-206.17130	106.53168
8450.00000	106.42582	-208.03706	106.42582
8500.00000	106.35957	-209.99608	106.35957
8550.00000	106.36864	-211.98013	106.36864
8600.00000	106.31883	-214.65347	106.31883
8650.00000	106.25734	-217.01645	106.25734
8700.00000	106.24618	-220.34501	106.24618
8750.00000	106.19081	-222.06028	106.19081
8800.00000	106.22195	-225.20275	106.22195
8850.00000	106.19953	-227.98073	106.19953
8900.00000	106.19235	-230.28828	106.19235
8950.00000	106.19965	-233.21831	106.19965
9000.00000	106.09220	-235.76646	106.09220
9050.00000	106.05012	-238.82937	106.05012
9100.00000	105.94873	-241.48805	105.94873
9150.00000	105.84353	-244.29074	105.84353
9200.00000	105.77792	-247.45757	105.77792
9250.00000	105.59099	-250.39984	105.59099
9300.00000	105.50586	-253.44278	105.50586
9350.00000	105.43246	-256.50506	105.43246
9400.00000	105.27842	-258.99237	105.27842
9450.00000	105.21438	-261.35379	105.21438
9500.00000	105.21709	-262.85666	105.21709
9550.00000	105.25383	-264.84318	105.25383
9600.00000	105.27448	-267.76469	105.27448
9650.00000	105.11214	-270.44958	105.11214
9700.00000	104.92727	-272.48235	104.92727
9750.00000	104.80493	-275.44250	104.80493
9800.00000	104.58362	-277.67106	104.58362
9850.00000	104.40580	-279.99087	104.40580
9900.00000	104.09395	-282.70895	104.09395
9950.00000	103.95711	-284.99133	103.95711
10000.00000	103.81540	-287.86170	103.81540
10050.00000	103.65653	-290.10175	103.65653
10100.00000	103.49969	-292.12593	103.49969
10150.00000	103.26916	-294.82855	103.26916
10200.00000	103.10246	-296.93187	103.10246
10250.00000	102.88391	-299.38355	102.88391
10300.00000	102.76733	-301.64644	102.76733
10350.00000	102.52928	-303.93734	102.52928
10400.00000	102.26591	-306.68887	102.26591
10450.00000	102.18238	-309.50577	102.18238
10500.00000	102.08859	-312.04759	102.08859
10550.00000	101.95804	-314.65806	101.95804
10600.00000	101.81808	-316.93254	101.81808
10650.00000	101.66869	-318.76358	101.66869
10700.00000	101.54451	-321.66587	101.54451
10750.00000	101.41913	-323.94306	101.41913
10800.00000	101.18619	-325.87504	101.18619
10850.00000	100.96941	-328.96736	100.96941
10900.00000	100.76165	-331.34977	100.76165
10950.00000	100.53540	-333.41332	100.53540
11000.00000	100.28384	-335.90118	100.28384
11050.00000	99.93451	-338.29796	99.93451
11100.00000	99.65244	-340.89222	99.65244
11150.00000	99.28147	-342.80219	99.28147
11200.00000	99.04157	-344.66231	99.04157
11250.00000	98.64946	-346.82135	98.64946
11300.00000	98.22600	-348.84978	98.22600
11350.00000	97.85392	-350.25066	97.85392
11400.00000	97.39354	-351.81738	97.39354
11450.00000	97.04520	-353.71213	97.04520
11500.00000	96.81034	-354.41708	96.81034
11550.00000	96.38165	-355.07806	96.38165
11600.00000	96.18626	-356.36496	96.18626
11650.00000	95.82828	-355.93362	95.82828
11700.00000	95.60005	-356.21515	95.60005
11750.00000	95.39095	-356.52022	95.39095
11800.00000	95.12847	-357.20714	95.12847
11850.00000	94.98671	-356.54545	94.98671
11900.00000	94.65205	-357.33597	94.65205
11950.00000	94.53485	-357.15759	94.53485
12000.00000	94.34565	-357.02008	94.34565
12050.00000	94.15394	-356.77440	94.15394
12100.00000	94.08878	-357.73250	94.08878
12150.00000	93.96798	-358.17024	93.96798
12200.00000	93.94011	-358.90638	93.94011
12250.00000	93.89795	-358.78995	93.89795
12300.00000	94.99507	-359.53637	94.99507
12350.00000	93.86590	-360.14836	93.86590
12400.00000	93.81885	-359.87406	93.81885
12450.00000	93.76336	-360.38809	93.76336
12500.00000	93.73101	-361.55112	93.73101
12550.00000	93.70374	-362.37549	93.70374
12600.00000	93.58917	-363.93850	93.58917
12650.00000	93.70924	-364.91048	93.70924
12700.00000	93.56694	-366.08507	93.56694
12750.00000	93.48104	-367.66367	93.48104
12800.00000	93.39179	-368.39023	93.39179
12850.00000	92.99652	-369.12923	92.99652
12900.00000	92.92822	-370.72618	92.92822
12950.00000	92.85634	-371.82098	92.85634
13000.00000	92.70993	-373.28325	92.70993
13050.00000	92.66002	-372.92626	92.66002
13100.00000	92.44563	-373.48699	92.44563
13150.00000	92.34722	-375.06449	92.34722
13200.00000	92.27627	-374.15570	92.27627
13250.00000	92.09378	-374.38723	92.09378
13300.00000	91.90619	-372.58682	91.90619
13350.00000	91.83746	-373.34878	91.83746
13400.00000	91.94453	-373.69415	91.94453
13450.00000	91.69919	-372.61057	91.69919
13500.00000	91.79846	-371.59351	91.79846
13550.00000	91.62259	-371.77732	91.62259
13600.00000	91.68376	-371.28131	91.68376
13650.00000	91.73154	-371.30093	91.73154
13700.00000	91.66722	-371.17698	91.66722
13750.00000	91.72269	-370.91492	91.72269
13800.00000	91.71102	-372.32880	91.71102
13850.00000	91.75500	-373.28299	91.75500
13900.00000	91.78380	-372.94873	91.78380
13950.00000	92.00220	-372.88335	92.00220
14000.00000	92.27818	-371.98034	92.27818
14050.00000	92.48314	-372.03988	92.48314
14100.00000	92.45793	-371.91826	92.45793
14150.00000	92.68607	-372.57074	92.68607
14200.00000	92.87354	-372.64961	92.87354
14250.00000	93.35066	-371.72806	93.35066
14300.00000	93.41703	-372.93662	93.41703
14350.00000	93.51387	-371.76864	93.51387
14400.00000	93.40262	-372.99783	93.40262
14450.00000	93.54315	-372.74539	93.54315
14500.00000	93.62071	-373.85549	93.62071
14550.00000	93.91527	-373.74392	93.91527
14600.00000	93.92758	-375.15761	93.92758
14650.00000	94.32118	-373.85526	94.32118
14700.00000	94.49450	-378.27754	94.49450
14750.00000	94.62232	-378.43353	94.62232
14800.00000	94.73052	-378.43156	94.73052
14850.00000	95.11925	-378.24049	95.11925
14900.00000	95.38277	-378.95713	95.38277
14950.00000	95.69535	-379.51890	95.69535
15000.00000	95.88665	-380.36204	95.88665
15050.00000	95.96143	-379.22070	95.96143
15100.00000	96.21749	-379.23160	96.21749
15150.00000	96.63431	-380.49844	96.63431
15200.00000	96.88964	-379.54377	96.88964
15250.00000	97.04614	-381.32639	97.04614
15300.00000	97.56275	-382.25646	97.56275
15350.00000	97.83896	-383.75817	97.83896
15400.00000	98.12298	-383.67851	98.12298
15450.00000	98.47639	-385.23525	98.47639
15500.00000	98.94612	-386.52671	98.94612
15550.00000	99.38258	-388.01001	99.38258
15600.00000	99.71944	-389.45681	99.71944
15650.00000	100.28945	-389.42922	100.28945
15700.00000	100.49772	-392.56988	100.49772
15750.00000	101.00371	-394.12012	101.00371
15800.00000	101.43944	-395.62484	101.43944
15850.00000	101.80339	-397.66845	101.80339
15900.00000	102.11095	-400.48284	102.11095
15950.00000	102.54586	-403.06582	102.54586
16000.00000	102.89654	-405.14787	102.89654
16050.00000	103.33626	-407.73014	103.33626
16100.00000	103.53097	-410.98056	103.53097
16150.00000	103.83553	-413.74191	103.83553
16200.00000	104.15264	-417.46349	104.15264
16250.00000	104.50651	-420.11822	104.50651
16300.00000	104.93583	-423.13261	104.93583
16350.00000	105.14769	-426.21656	105.14769
16400.00000	105.39571	-429.11676	105.39571
16450.00000	105.63892	-432.23619	105.63892
16500.00000	105.86209	-435.56391	105.86209
16550.00000	106.14849	-439.38725	106.14849
16600.00000	106.36556	-442.27833	106.36556
16650.00000	106.52176	-445.44912	106.52176
16700.00000	106.71685	-448.43963	106.71685
16750.00000	106.78671	-452.13627	106.78671
16800.00000	107.00290	-455.60182	107.00290
16850.00000	107.25044	-458.74574	107.25044
16900.00000	107.43286	-462.08668	107.43286
16950.00000	107.56087	-465.47693	107.56087
17000.00000	107.55021	-468.69190	107.55021
17050.00000	107.76387	-471.29585	107.76387
17100.00000	107.82849	-473.64872	107.82849
17150.00000	108.09466	-477.53067	108.09466
17200.00000	108.19990	-480.62365	108.19990
17250.00000	108.27768	-484.38644	108.27768
17300.00000	108.47195	-487.48680	108.47195
17350.00000	108.47210	-490.47058	108.47210
17400.00000	108.67177	-493.74758	108.67177
17450.00000	108.70411	-497.44562	108.70411
17500.00000	108.82928	-500.70805	108.82928
17550.00000	108.90485	-503.92534	108.90485
17600.00000	109.09687	-506.88383	109.09687
17650.00000	109.14895	-511.04245	109.14895
17700.00000	109.20452	-514.65949	109.20452
17750.00000	109.41592	-517.35462	109.41592
17800.00000	109.37005	-521.47790	109.37005
17850.00000	109.43789	-524.53308	109.43789
17900.00000	109.45952	-528.18001	109.45952
17950.00000	109.56875	-531.99177	109.56875
18000.00000	109.58241	-535.96716	109.58241
18050.00000	109.71409	-539.14150	109.71409
18100.00000	109.64166	-543.26565	109.64166
18150.00000	109.64118	-546.36270	109.64118
18200.00000	109.56986	-550.52765	109.56986
18250.00000	109.61242	-553.32834	109.61242
18300.00000	109.63811	-556.88187	109.63811
18350.00000	109.58080	-560.28412	109.58080
18400.00000	109.47684	-564.13608	109.47684
18450.00000	109.37441	-568.80678	109.37441
18500.00000	109.33426	-572.20350	109.33426
18550.00000	109.24057	-574.99992	109.24057
18600.00000	109.22799	-578.78990	109.22799
18650.00000	108.98969	-581.85293	108.98969
18700.00000	108.86789	-585.60169	108.86789
18750.00000	108.80569	-588.82384	108.80569
18800.00000	108.79578	-591.28763	108.79578
18850.00000	108.54108	-594.55950	108.54108
18900.00000	108.37592	-597.43122	108.37592
18950.00000	108.26230	-600.86321	108.26230
19000.00000	107.99906	-603.40469	107.99906
19050.00000	108.01992	-606.17475	108.01992
19100.00000	107.81748	-608.81013	107.81748
19150.00000	107.81755	-611.32911	107.81755
19200.00000	107.64318	-613.57914	107.64318
19250.00000	107.52385	-617.37653	107.52385
19300.00000	107.34244	-619.25427	107.34244
19350.00000	107.24103	-621.74423	107.24103
19400.00000	107.07631	-624.14045	107.07631
19450.00000	107.07047	-626.05056	107.07047
19500.00000	106.87134	-629.48898	106.87134
19550.00000	106.80007	-631.59293	106.80007
19600.00000	106.77864	-634.55815	106.77864
19650.00000	106.59902	-636.47321	106.59902
19700.00000	106.39408	-639.09161	106.39408
19750.00000	106.30626	-640.98568	106.30626
19800.00000	106.29237	-644.07511	106.29237
19850.00000	106.21024	-646.20957	106.21024
19900.00000	106.04612	-649.22086	106.04612
19950.00000	105.92571	-651.53577	105.92571
20000.00000	105.82763	-653.91903	105.82763
20050.00000	105.74740	-656.34883	105.74740
20100.00000	105.55447	-658.78960	105.55447
20150.00000	105.50582	-660.18849	105.50582
20200.00000	105.36285	-663.26612	105.36285
20250.00000	105.18709	-665.46605	105.18709
20300.00000	104.99327	-667.78795	104.99327
20350.00000	104.93476	-670.18687	104.93476
20400.00000	104.73283	-671.59849	104.73283
20450.00000	104.51775	-673.66803	104.51775
20500.00000	104.43470	-676.12715	104.43470
20550.00000	104.06047	-677.18345	104.06047
20600.00000	103.98598	-678.75140	103.98598
20650.00000	103.84084	-680.48335	103.84084
20700.00000	103.62529	-681.79795	103.62529
20750.00000	103.54486	-683.04025	103.54486
20800.00000	103.37270	-683.94311	103.37270
20850.00000	103.31345	-685.06019	103.31345
20900.00000	103.13331	-686.01715	103.13331
20950.00000	103.03897	-686.36558	103.03897
21000.00000	102.99601	-686.95357	102.99601
21050.00000	103.12156	-687.24964	103.12156
21100.00000	103.10827	-687.63346	103.10827
21150.00000	103.24314	-688.55207	103.24314
21200.00000	103.36783	-689.15572	103.36783
21250.00000	103.48398	-691.22040	103.48398
21300.00000	103.67369	-691.87388	103.67369
21350.00000	103.79951	-693.19485	103.79951
21400.00000	103.93239	-695.16990	103.93239
21450.00000	104.08841	-697.01762	104.08841
21500.00000	104.24245	-699.51346	104.24245
21550.00000	104.26347	-701.11455	104.26347
21600.00000	104.44397	-703.60491	104.44397
21650.00000	104.49990	-706.13022	104.49990
21700.00000	104.54882	-708.16970	104.54882
21750.00000	104.62952	-710.62050	104.62952
21800.00000	104.66388	-712.98966	104.66388
21850.00000	104.60490	-715.13222	104.60490
21900.00000	104.66258	-717.54003	104.66258
21950.00000	104.67280	-719.39812	104.67280
22000.00000	104.73607	-721.63486	104.73607
22050.00000	104.69879	-723.25939	104.69879
22100.00000	104.71834	-725.65975	104.71834
22150.00000	104.71537	-727.40920	104.71537
22200.00000	104.79514	-729.43152	104.79514
22250.00000	104.75778	-731.02372	104.75778
22300.00000	104.66706	-732.89808	104.66706
22350.00000	104.81026	-735.10643	104.81026
22400.00000	104.87951	-737.35719	104.87951
22450.00000	104.86932	-739.08652	104.86932
22500.00000	104.82146	-740.09908	104.82146
22550.00000	104.89155	-742.43132	104.89155
22600.00000	104.90020	-745.18262	104.90020
22650.00000	104.96045	-746.91520	104.96045
22700.00000	104.96868	-748.77769	104.96868
22750.00000	104.97176	-749.02967	104.97176
