---ACOUSTIC CALIBRATION---
Filename: C:\Data\AZH DATA\AZH51\RightPrimary.calib
Date: 8/27/2019 11:12:48 AM
Format: 4
Probe Tube Correction File: C:\Data\Probe Tube Calibrations\50_ProbeTube.calib
Experiment VIs: 850
EPL_CFTS.exe V12.0.1 (2012)
DAQmx V9.6

Attenuation (dB): 40.000000
Min Freq (Hz): 50.000000
Max Freq (Hz): 49950.000000
Freq Step (Hz): 50.000000
Sample Rate (Hz): 100000.000000
[Smoothing]
Method=None
MA.Iterations=0
MA.Length=0
Loess.Length=0
Loess.Type=Linear
Loess.Robust=FALSE


Freq(Hz)	Mag(dB)	Phase(deg)	Unsmoothed(dB)

50.00000	108.03724	654.96646	108.03724
100.00000	82.65638	565.00694	82.65638
150.00000	82.33531	488.20956	82.33531
200.00000	73.41751	472.29401	73.41751
250.00000	91.08357	465.74337	91.08357
300.00000	87.58734	394.03335	87.58734
350.00000	86.20033	350.71565	86.20033
400.00000	88.31150	370.94293	88.31150
450.00000	88.71869	349.09680	88.71869
500.00000	92.81581	365.59336	92.81581
550.00000	93.63164	355.77079	93.63164
600.00000	95.49211	352.67269	95.49211
650.00000	98.94478	339.78105	98.94478
700.00000	101.32348	329.36816	101.32348
750.00000	102.76508	307.77454	102.76508
800.00000	103.45773	286.47672	103.45773
850.00000	102.80964	268.92750	102.80964
900.00000	100.69618	253.76895	100.69618
950.00000	98.96333	254.79627	98.96333
1000.00000	97.39582	259.63089	97.39582
1050.00000	96.25192	277.78241	96.25192
1100.00000	98.81698	296.20119	98.81698
1150.00000	101.71352	297.22318	101.71352
1200.00000	104.11007	294.14631	104.11007
1250.00000	105.79346	286.17098	105.79346
1300.00000	107.31495	280.64710	107.31495
1350.00000	108.58401	271.44246	108.58401
1400.00000	109.54308	264.40647	109.54308
1450.00000	110.58857	257.74912	110.58857
1500.00000	111.65608	250.37151	111.65608
1550.00000	112.47170	241.32670	112.47170
1600.00000	113.82618	231.16345	113.82618
1650.00000	114.68235	214.59899	114.68235
1700.00000	113.41210	204.83230	113.41210
1750.00000	113.04655	200.01504	113.04655
1800.00000	112.85421	196.61302	112.85421
1850.00000	113.23547	196.31586	113.23547
1900.00000	114.62077	190.18726	114.62077
1950.00000	114.97622	175.23706	114.97622
2000.00000	113.72843	164.49642	113.72843
2050.00000	112.71682	171.33878	112.71682
2100.00000	114.67137	168.56784	114.67137
2150.00000	115.08505	156.69649	115.08505
2200.00000	114.84835	146.63647	114.84835
2250.00000	114.17899	140.07497	114.17899
2300.00000	114.19152	134.49884	114.19152
2350.00000	113.86582	128.48344	113.86582
2400.00000	113.50177	122.76901	113.50177
2450.00000	113.11802	116.84726	113.11802
2500.00000	112.56263	111.77044	112.56263
2550.00000	111.97066	106.99688	111.97066
2600.00000	111.26553	102.97010	111.26553
2650.00000	110.55765	99.96923	110.55765
2700.00000	109.79590	96.70384	109.79590
2750.00000	108.79609	94.82672	108.79609
2800.00000	107.71177	94.06150	107.71177
2850.00000	106.55383	96.11317	106.55383
2900.00000	105.36562	100.02858	105.36562
2950.00000	104.25372	108.42259	104.25372
3000.00000	103.62535	121.08634	103.62535
3050.00000	103.94326	137.27185	103.94326
3100.00000	105.68365	150.72281	105.68365
3150.00000	107.92939	156.26199	107.92939
3200.00000	109.90660	157.40889	109.90660
3250.00000	111.65759	155.92754	111.65759
3300.00000	113.25551	153.34340	113.25551
3350.00000	114.75985	149.91922	114.75985
3400.00000	116.33418	146.54388	116.33418
3450.00000	117.88612	140.22271	117.88612
3500.00000	119.38290	131.92938	119.38290
3550.00000	120.39403	121.65876	120.39403
3600.00000	121.21085	112.27077	121.21085
3650.00000	121.74924	102.13835	121.74924
3700.00000	122.06798	92.79420	122.06798
3750.00000	122.23487	84.09770	122.23487
3800.00000	122.24810	76.50899	122.24810
3850.00000	122.22374	70.32992	122.22374
3900.00000	122.35419	65.41633	122.35419
3950.00000	122.67997	60.15685	122.67997
4000.00000	123.04511	54.13665	123.04511
4050.00000	123.38967	47.78667	123.38967
4100.00000	123.74003	40.94944	123.74003
4150.00000	124.19554	33.33127	124.19554
4200.00000	124.31021	24.91732	124.31021
4250.00000	124.38412	16.41530	124.38412
4300.00000	124.35546	 8.03413	124.35546
4350.00000	124.19531	-0.27666	124.19531
4400.00000	123.96514	-7.88722	123.96514
4450.00000	123.68938	-15.14877	123.68938
4500.00000	123.42248	-22.05104	123.42248
4550.00000	123.12720	-29.06487	123.12720
4600.00000	122.78462	-36.00561	122.78462
4650.00000	122.45689	-42.86145	122.45689
4700.00000	122.02704	-50.27170	122.02704
4750.00000	121.42934	-57.77734	121.42934
4800.00000	120.64120	-64.85008	120.64120
4850.00000	119.64352	-70.65722	119.64352
4900.00000	118.55753	-74.51024	118.55753
4950.00000	117.55444	-76.26254	117.55444
5000.00000	116.72253	-76.70347	116.72253
5050.00000	116.02099	-76.88578	116.02099
5100.00000	115.44454	-73.83557	115.44454
5150.00000	115.82284	-72.87724	115.82284
5200.00000	116.10071	-75.07164	116.10071
5250.00000	115.99031	-81.26501	115.99031
5300.00000	115.29401	-84.44162	115.29401
5350.00000	114.78992	-84.87591	114.78992
5400.00000	114.50601	-84.95696	114.50601
5450.00000	114.37429	-85.05618	114.37429
5500.00000	114.33033	-85.43097	114.33033
5550.00000	114.40584	-86.04481	114.40584
5600.00000	114.57660	-87.17363	114.57660
5650.00000	114.81659	-89.22942	114.81659
5700.00000	115.00463	-92.25687	115.00463
5750.00000	115.13060	-95.76095	115.13060
5800.00000	115.15078	-99.47478	115.15078
5850.00000	115.12930	-103.15848	115.12930
5900.00000	115.06392	-106.54747	115.06392
5950.00000	114.97997	-109.85316	114.97997
6000.00000	114.88802	-112.82997	114.88802
6050.00000	114.77082	-115.82920	114.77082
6100.00000	114.68735	-118.84743	114.68735
6150.00000	114.59124	-121.73559	114.59124
6200.00000	114.48777	-124.64421	114.48777
6250.00000	114.39572	-127.41552	114.39572
6300.00000	114.31067	-130.15304	114.31067
6350.00000	114.21896	-133.00949	114.21896
6400.00000	114.13513	-135.73507	114.13513
6450.00000	114.07542	-138.56306	114.07542
6500.00000	113.98932	-141.37958	113.98932
6550.00000	113.91259	-144.18482	113.91259
6600.00000	113.84022	-146.98223	113.84022
6650.00000	113.79406	-149.75601	113.79406
6700.00000	113.75029	-152.75665	113.75029
6750.00000	113.72590	-155.63120	113.72590
6800.00000	113.69221	-158.68621	113.69221
6850.00000	113.67383	-161.68241	113.67383
6900.00000	113.65223	-164.79363	113.65223
6950.00000	113.63582	-167.94109	113.63582
7000.00000	113.62637	-171.23331	113.62637
7050.00000	113.61129	-174.76728	113.61129
7100.00000	113.62473	-178.43536	113.62473
7150.00000	113.59896	-182.10891	113.59896
7200.00000	113.54999	-186.02037	113.54999
7250.00000	113.48131	-190.07681	113.48131
7300.00000	113.42354	-194.18314	113.42354
7350.00000	113.31747	-198.34476	113.31747
7400.00000	113.20844	-202.84473	113.20844
7450.00000	113.04071	-207.27174	113.04071
7500.00000	112.85388	-211.74101	112.85388
7550.00000	112.63366	-216.18556	112.63366
7600.00000	112.35503	-220.61826	112.35503
7650.00000	112.04780	-224.99145	112.04780
7700.00000	111.74640	-229.39188	111.74640
7750.00000	111.33994	-233.74327	111.33994
7800.00000	110.91963	-237.93329	110.91963
7850.00000	110.49234	-241.81700	110.49234
7900.00000	110.07707	-245.54659	110.07707
7950.00000	109.64279	-249.24590	109.64279
8000.00000	109.21326	-252.64245	109.21326
8050.00000	108.79983	-255.93181	108.79983
8100.00000	108.38160	-258.23098	108.38160
8150.00000	107.90610	-260.64319	107.90610
8200.00000	107.47000	-262.47391	107.47000
8250.00000	106.97456	-264.45640	106.97456
8300.00000	106.52714	-266.04430	106.52714
8350.00000	106.00249	-267.38642	106.00249
8400.00000	105.48266	-269.23814	105.48266
8450.00000	104.90535	-270.90051	104.90535
8500.00000	104.34524	-272.80395	104.34524
8550.00000	103.87026	-274.68786	103.87026
8600.00000	103.41975	-277.02171	103.41975
8650.00000	103.02200	-279.04105	103.02200
8700.00000	102.70071	-281.53420	102.70071
8750.00000	102.39969	-282.08086	102.39969
8800.00000	102.17982	-283.66648	102.17982
8850.00000	101.95621	-284.48477	101.95621
8900.00000	101.74531	-284.40090	101.74531
8950.00000	101.48702	-284.74335	101.48702
9000.00000	101.09565	-284.64469	101.09565
9050.00000	100.74646	-285.09807	100.74646
9100.00000	100.28329	-285.31483	100.28329
9150.00000	99.86622	-285.90088	99.86622
9200.00000	99.48814	-287.25127	99.48814
9250.00000	99.07004	-288.81326	99.07004
9300.00000	98.81617	-290.66253	98.81617
9350.00000	98.69257	-292.53827	98.69257
9400.00000	98.55411	-293.47857	98.55411
9450.00000	98.57220	-293.81399	98.57220
9500.00000	98.67835	-293.00696	98.67835
9550.00000	98.79974	-292.59723	98.79974
9600.00000	98.84301	-292.62121	98.84301
9650.00000	98.70607	-292.35188	98.70607
9700.00000	98.48981	-291.61895	98.48981
9750.00000	98.30460	-292.59657	98.30460
9800.00000	97.97967	-292.95923	97.97967
9850.00000	97.75039	-293.93855	97.75039
9900.00000	97.46276	-295.70640	97.46276
9950.00000	97.40952	-297.11711	97.40952
10000.00000	97.43826	-298.93711	97.43826
10050.00000	97.47606	-300.04195	97.47606
10100.00000	97.52487	-300.36653	97.52487
10150.00000	97.48767	-301.15046	97.48767
10200.00000	97.47778	-301.32601	97.47778
10250.00000	97.37113	-301.99455	97.37113
10300.00000	97.32480	-302.76779	97.32480
10350.00000	97.16621	-303.84544	97.16621
10400.00000	97.01020	-305.70397	97.01020
10450.00000	97.04901	-308.03442	97.04901
10500.00000	97.14472	-310.24163	97.14472
10550.00000	97.23883	-312.55136	97.23883
10600.00000	97.35009	-314.37597	97.35009
10650.00000	97.42217	-315.44043	97.42217
10700.00000	97.45771	-317.81487	97.45771
10750.00000	97.52244	-319.42234	97.52244
10800.00000	97.43507	-320.93414	97.43507
10850.00000	97.31851	-323.91400	97.31851
10900.00000	97.22418	-326.05189	97.22418
10950.00000	97.12070	-328.50599	97.12070
11000.00000	97.02388	-331.42865	97.02388
11050.00000	96.80980	-333.83205	96.80980
11100.00000	96.70153	-336.78339	96.70153
11150.00000	96.45963	-338.99688	96.45963
11200.00000	96.33134	-340.93128	96.33134
11250.00000	96.02892	-343.41307	96.02892
11300.00000	95.65361	-345.64029	95.65361
11350.00000	95.33919	-347.35848	95.33919
11400.00000	94.90237	-349.51444	94.90237
11450.00000	94.62594	-351.92399	94.62594
11500.00000	94.42998	-352.96376	94.42998
11550.00000	94.05459	-354.02124	94.05459
11600.00000	93.86404	-355.77082	93.86404
11650.00000	93.54231	-355.64921	93.54231
11700.00000	93.31430	-356.23757	93.31430
11750.00000	93.06674	-357.16355	93.06674
11800.00000	92.82255	-357.99493	92.82255
11850.00000	92.70201	-357.72455	92.70201
11900.00000	92.35825	-358.95711	92.35825
11950.00000	92.24685	-358.93493	92.24685
12000.00000	91.99506	-358.54629	91.99506
12050.00000	91.72684	-358.57813	91.72684
12100.00000	91.56018	-359.74588	91.56018
12150.00000	91.34805	-360.17221	91.34805
12200.00000	91.28236	-361.53680	91.28236
12250.00000	91.21595	-361.85493	91.21595
12300.00000	92.30021	-362.86137	92.30021
12350.00000	91.13709	-362.84104	91.13709
12400.00000	91.08528	-362.00595	91.08528
12450.00000	90.95195	-361.74651	90.95195
12500.00000	90.78468	-362.55863	90.78468
12550.00000	90.60037	-363.38247	90.60037
12600.00000	90.36850	-364.95207	90.36850
12650.00000	90.50622	-366.53900	90.50622
12700.00000	90.40548	-367.63685	90.40548
12750.00000	90.33098	-368.15798	90.33098
12800.00000	90.25125	-368.65471	90.25125
12850.00000	89.82998	-368.15173	89.82998
12900.00000	89.55163	-369.41608	89.55163
12950.00000	89.34959	-370.35624	89.34959
13000.00000	89.06806	-372.62040	89.06806
13050.00000	89.00712	-371.52339	89.00712
13100.00000	88.89220	-372.64914	88.89220
13150.00000	88.74078	-372.53301	88.74078
13200.00000	88.65795	-371.20572	88.65795
13250.00000	88.49655	-370.46067	88.49655
13300.00000	88.15022	-367.54040	88.15022
13350.00000	87.93146	-367.39413	87.93146
13400.00000	87.92219	-367.76468	87.92219
13450.00000	87.66581	-365.82962	87.66581
13500.00000	87.63702	-365.13179	87.63702
13550.00000	87.50523	-365.05299	87.50523
13600.00000	87.67929	-363.04824	87.67929
13650.00000	87.65968	-360.85601	87.65968
13700.00000	87.55789	-358.80400	87.55789
13750.00000	87.35102	-357.98201	87.35102
13800.00000	87.24861	-358.46598	87.24861
13850.00000	87.18896	-360.01004	87.18896
13900.00000	87.34376	-358.87394	87.34376
13950.00000	87.73337	-357.58526	87.73337
14000.00000	88.25713	-354.10588	88.25713
14050.00000	88.43442	-351.33627	88.43442
14100.00000	88.42199	-349.46813	88.42199
14150.00000	88.53310	-348.59942	88.53310
14200.00000	88.70037	-348.37618	88.70037
14250.00000	89.35210	-346.48227	89.35210
14300.00000	89.75013	-346.49244	89.75013
14350.00000	90.11976	-343.79388	90.11976
14400.00000	90.16638	-342.92349	90.16638
14450.00000	90.48524	-340.73628	90.48524
14500.00000	90.75390	-340.87543	90.75390
14550.00000	91.15993	-340.16652	91.15993
14600.00000	91.42342	-341.26749	91.42342
14650.00000	92.17336	-339.18529	92.17336
14700.00000	92.71488	-343.45364	92.71488
14750.00000	93.14487	-342.89534	93.14487
14800.00000	93.48883	-342.05968	93.48883
14850.00000	94.06529	-341.14384	94.06529
14900.00000	94.54759	-341.99254	94.54759
14950.00000	95.04166	-342.96955	95.04166
15000.00000	95.64506	-344.58480	95.64506
15050.00000	96.10900	-344.02598	96.10900
15100.00000	96.64282	-344.58536	96.64282
15150.00000	97.40273	-346.30997	97.40273
15200.00000	97.79508	-346.15266	97.79508
15250.00000	98.06864	-348.50118	98.06864
15300.00000	98.74995	-350.94843	98.74995
15350.00000	99.22497	-354.37870	99.22497
15400.00000	99.70069	-355.60311	99.70069
15450.00000	100.23972	-357.89333	100.23972
15500.00000	100.81207	-359.94835	100.81207
15550.00000	101.30561	-362.82798	101.30561
15600.00000	101.71368	-365.49378	101.71368
15650.00000	102.28659	-366.94376	102.28659
15700.00000	102.54398	-371.31304	102.54398
15750.00000	103.12140	-374.20894	103.12140
15800.00000	103.60077	-376.36049	103.60077
15850.00000	103.98431	-379.45403	103.98431
15900.00000	104.27037	-383.24548	104.27037
15950.00000	104.68787	-386.63323	104.68787
16000.00000	105.04722	-390.13785	105.04722
16050.00000	105.45553	-393.75779	105.45553
16100.00000	105.64534	-397.64107	105.64534
16150.00000	105.90303	-401.06082	105.90303
16200.00000	106.20861	-405.47933	106.20861
16250.00000	106.45528	-408.85880	106.45528
16300.00000	106.83339	-412.59559	106.83339
16350.00000	107.00423	-416.49694	107.00423
16400.00000	107.20075	-419.84291	107.20075
16450.00000	107.39858	-423.26001	107.39858
16500.00000	107.53716	-427.01924	107.53716
16550.00000	107.74349	-431.26482	107.74349
16600.00000	107.90314	-434.47686	107.90314
16650.00000	107.98055	-438.16969	107.98055
16700.00000	108.17640	-441.21938	108.17640
16750.00000	108.16905	-445.18285	108.16905
16800.00000	108.31940	-448.89863	108.31940
16850.00000	108.53557	-452.16720	108.53557
16900.00000	108.63493	-455.69366	108.63493
16950.00000	108.73481	-459.16928	108.73481
17000.00000	108.70520	-462.64286	108.70520
17050.00000	108.84402	-465.15849	108.84402
17100.00000	108.85944	-467.69241	108.85944
17150.00000	109.06367	-471.50983	109.06367
17200.00000	109.12531	-474.80528	109.12531
17250.00000	109.15437	-478.38425	109.15437
17300.00000	109.32314	-481.53847	109.32314
17350.00000	109.27404	-484.36499	109.27404
17400.00000	109.41962	-487.54324	109.41962
17450.00000	109.41001	-491.31420	109.41001
17500.00000	109.52055	-494.41453	109.52055
17550.00000	109.60110	-497.61474	109.60110
17600.00000	109.73279	-500.29244	109.73279
17650.00000	109.78877	-504.43868	109.78877
17700.00000	109.79948	-507.87811	109.79948
17750.00000	109.97620	-510.42859	109.97620
17800.00000	109.92206	-514.37675	109.92206
17850.00000	109.99342	-517.32533	109.99342
17900.00000	110.01871	-520.80092	110.01871
17950.00000	110.14343	-524.45985	110.14343
18000.00000	110.12178	-528.32650	110.12178
18050.00000	110.28134	-531.35227	110.28134
18100.00000	110.22480	-535.46392	110.22480
18150.00000	110.22779	-538.36799	110.22779
18200.00000	110.16267	-542.46968	110.16267
18250.00000	110.23098	-545.29262	110.23098
18300.00000	110.24098	-548.76329	110.24098
18350.00000	110.20733	-552.31462	110.20733
18400.00000	110.12051	-555.99222	110.12051
18450.00000	110.03024	-560.63126	110.03024
18500.00000	109.98829	-563.90388	109.98829
18550.00000	109.89605	-566.92493	109.89605
18600.00000	109.90805	-570.83689	109.90805
18650.00000	109.67796	-573.74305	109.67796
18700.00000	109.55589	-577.60977	109.55589
18750.00000	109.51288	-580.77435	109.51288
18800.00000	109.50964	-583.41468	109.50964
18850.00000	109.26176	-586.86424	109.26176
18900.00000	109.11414	-589.74560	109.11414
18950.00000	109.01910	-593.36135	109.01910
19000.00000	108.74952	-595.98111	108.74952
19050.00000	108.74276	-598.89439	108.74276
19100.00000	108.56344	-601.60316	108.56344
19150.00000	108.55599	-604.19381	108.55599
19200.00000	108.38099	-606.62586	108.38099
19250.00000	108.25222	-610.49305	108.25222
19300.00000	108.06877	-612.36288	108.06877
19350.00000	107.94827	-615.12020	107.94827
19400.00000	107.79694	-617.48714	107.79694
19450.00000	107.76862	-619.53355	107.76862
19500.00000	107.55663	-622.99585	107.55663
19550.00000	107.46795	-625.33003	107.46795
19600.00000	107.42823	-628.35847	107.42823
19650.00000	107.24955	-630.28122	107.24955
19700.00000	107.03684	-633.01789	107.03684
19750.00000	106.91288	-634.86682	106.91288
19800.00000	106.89669	-638.11587	106.89669
19850.00000	106.78976	-640.30382	106.78976
19900.00000	106.61247	-643.42368	106.61247
19950.00000	106.47485	-645.72693	106.47485
20000.00000	106.36484	-648.22896	106.36484
20050.00000	106.23536	-650.63115	106.23536
20100.00000	106.03159	-653.03569	106.03159
20150.00000	105.95177	-654.52521	105.95177
20200.00000	105.75852	-657.63157	105.75852
20250.00000	105.57762	-659.86444	105.57762
20300.00000	105.34324	-662.02091	105.34324
20350.00000	105.26367	-664.37755	105.26367
20400.00000	105.03259	-665.75126	105.03259
20450.00000	104.78240	-667.83862	104.78240
20500.00000	104.67801	-670.05981	104.67801
20550.00000	104.26780	-671.10057	104.26780
20600.00000	104.16620	-672.37150	104.16620
20650.00000	103.98544	-673.98805	103.98544
20700.00000	103.76467	-675.11164	103.76467
20750.00000	103.65638	-676.06545	103.65638
20800.00000	103.46437	-676.66204	103.46437
20850.00000	103.40554	-677.54517	103.40554
20900.00000	103.23732	-678.06738	103.23732
20950.00000	103.14894	-678.14804	103.14894
21000.00000	103.10870	-678.43977	103.10870
21050.00000	103.23962	-678.46358	103.23962
21100.00000	103.25023	-678.59173	103.25023
21150.00000	103.40756	-679.37675	103.40756
21200.00000	103.58707	-679.68181	103.58707
21250.00000	103.72578	-681.68564	103.72578
21300.00000	103.96283	-682.27955	103.96283
21350.00000	104.12289	-683.54873	104.12289
21400.00000	104.30206	-685.64824	104.30206
21450.00000	104.48461	-687.61575	104.48461
21500.00000	104.68164	-690.05090	104.68164
21550.00000	104.71131	-692.02960	104.71131
21600.00000	104.90731	-694.67238	104.90731
21650.00000	104.95724	-697.38317	104.95724
21700.00000	105.01985	-699.62991	105.01985
21750.00000	105.07036	-702.22522	105.07036
21800.00000	105.10951	-704.79014	105.10951
21850.00000	105.06049	-707.09421	105.06049
21900.00000	105.08304	-709.61032	105.08304
21950.00000	105.08867	-711.64586	105.08867
22000.00000	105.09378	-713.79439	105.09378
22050.00000	105.04224	-715.79533	105.04224
22100.00000	105.01961	-717.89081	105.01961
22150.00000	104.98393	-719.78302	104.98393
22200.00000	105.02587	-721.91035	105.02587
22250.00000	104.98021	-723.53149	104.98021
22300.00000	104.84170	-725.57192	104.84170
22350.00000	104.96265	-727.72202	104.96265
22400.00000	104.97646	-729.60728	104.97646
22450.00000	104.89443	-731.36609	104.89443
22500.00000	104.80996	-732.30529	104.80996
22550.00000	104.83475	-734.52061	104.83475
22600.00000	104.83733	-737.15699	104.83733
22650.00000	104.81444	-738.77530	104.81444
22700.00000	104.82526	-740.44709	104.82526
22750.00000	104.80497	-740.47867	104.80497
22800.00000	104.80339	-744.51490	104.80339
