---ACOUSTIC CALIBRATION---
Filename: C:\Data\AZH DATA\AZH51\RightPrimary.calib
Date: 8/27/2019 11:14:04 AM
Format: 4
Probe Tube Correction File: C:\Data\Probe Tube Calibrations\50_ProbeTube.calib
Experiment VIs: 850
EPL_CFTS.exe V12.0.1 (2012)
DAQmx V9.6

Attenuation (dB): 40.000000
Min Freq (Hz): 50.000000
Max Freq (Hz): 49950.000000
Freq Step (Hz): 50.000000
Sample Rate (Hz): 100000.000000
[Smoothing]
Method=None
MA.Iterations=0
MA.Length=0
Loess.Length=0
Loess.Type=Linear
Loess.Robust=FALSE


Freq(Hz)	Mag(dB)	Phase(deg)	Unsmoothed(dB)

50.00000	101.38626	611.95475	101.38626
100.00000	83.06819	566.68629	83.06819
150.00000	81.77240	507.56981	81.77240
200.00000	83.06037	463.74683	83.06037
250.00000	91.03661	459.54538	91.03661
300.00000	89.46436	399.27125	89.46436
350.00000	87.77377	386.57312	87.77377
400.00000	89.94833	354.14502	89.94833
450.00000	88.29372	339.71295	88.29372
500.00000	92.21841	348.51479	92.21841
550.00000	95.11042	358.86826	95.11042
600.00000	97.21077	351.12585	97.21077
650.00000	99.29278	340.91320	99.29278
700.00000	102.14240	324.26726	102.14240
750.00000	103.65258	306.54800	103.65258
800.00000	104.28407	283.61703	104.28407
850.00000	103.70253	266.98564	103.70253
900.00000	101.96394	251.74951	101.96394
950.00000	100.00431	251.62981	100.00431
1000.00000	98.56237	255.58492	98.56237
1050.00000	96.95889	272.58518	96.95889
1100.00000	99.41890	292.32875	99.41890
1150.00000	102.19804	295.33345	102.19804
1200.00000	104.80310	293.59064	104.80310
1250.00000	106.48807	285.75648	106.48807
1300.00000	108.07225	280.41099	108.07225
1350.00000	109.45300	270.62052	109.45300
1400.00000	110.28863	263.87047	110.28863
1450.00000	111.42022	257.01184	111.42022
1500.00000	112.43072	250.05907	112.43072
1550.00000	113.28584	240.78364	113.28584
1600.00000	114.64555	230.74790	114.64555
1650.00000	115.60873	214.52852	115.60873
1700.00000	114.37862	204.49807	114.37862
1750.00000	114.05642	199.15206	114.05642
1800.00000	113.83244	195.46717	113.83244
1850.00000	114.15132	194.75367	114.15132
1900.00000	115.43961	189.15404	115.43961
1950.00000	115.93299	174.65765	115.93299
2000.00000	114.73740	163.36593	114.73740
2050.00000	113.57590	169.49153	113.57590
2100.00000	115.48359	167.49202	115.48359
2150.00000	115.96416	155.78068	115.96416
2200.00000	115.78382	146.14966	115.78382
2250.00000	115.13392	139.09886	115.13392
2300.00000	115.14769	133.88251	115.14769
2350.00000	114.86077	127.33770	114.86077
2400.00000	114.47536	121.89649	114.47536
2450.00000	114.13541	115.76831	114.13541
2500.00000	113.62207	110.77610	113.62207
2550.00000	113.14953	105.91318	113.14953
2600.00000	112.49911	101.88811	112.49911
2650.00000	111.86403	98.57610	111.86403
2700.00000	111.18460	94.96824	111.18460
2750.00000	110.37289	92.26472	110.37289
2800.00000	109.44980	90.86241	109.44980
2850.00000	108.48815	90.71656	108.48815
2900.00000	107.44510	91.72147	107.44510
2950.00000	106.31411	95.30329	106.31411
3000.00000	105.23033	102.28593	105.23033
3050.00000	104.35384	113.76800	104.35384
3100.00000	104.69637	129.12923	104.69637
3150.00000	106.08826	140.85197	106.08826
3200.00000	107.91032	148.17221	107.91032
3250.00000	109.70850	150.89501	109.70850
3300.00000	111.40719	151.50130	111.40719
3350.00000	113.06988	150.95554	113.06988
3400.00000	114.81481	149.80484	114.81481
3450.00000	116.58820	145.65963	116.58820
3500.00000	118.32478	138.88088	118.32478
3550.00000	119.58736	130.01285	119.58736
3600.00000	120.69034	121.65395	120.69034
3650.00000	121.53980	112.16600	121.53980
3700.00000	122.17789	103.01477	122.17789
3750.00000	122.65655	93.84593	122.65655
3800.00000	122.92566	85.28572	122.92566
3850.00000	123.04112	78.02721	123.04112
3900.00000	123.25278	72.05749	123.25278
3950.00000	123.61509	66.10776	123.61509
4000.00000	124.00623	59.56178	124.00623
4050.00000	124.39306	52.78293	124.39306
4100.00000	124.79236	45.54561	124.79236
4150.00000	125.31299	37.58226	125.31299
4200.00000	125.47425	28.55189	125.47425
4250.00000	125.61330	19.41538	125.61330
4300.00000	125.59707	10.26913	125.59707
4350.00000	125.43545	 1.22944	125.43545
4400.00000	125.17751	-7.09996	125.17751
4450.00000	124.84974	-14.87505	124.84974
4500.00000	124.51477	-22.26051	124.51477
4550.00000	124.17472	-29.56394	124.17472
4600.00000	123.76661	-36.80678	123.76661
4650.00000	123.37561	-43.88282	123.37561
4700.00000	122.87707	-51.44290	122.87707
4750.00000	122.22160	-59.02820	122.22160
4800.00000	121.36599	-66.18786	121.36599
4850.00000	120.30229	-71.88753	120.30229
4900.00000	119.16876	-75.66993	119.16876
4950.00000	118.11451	-77.38244	118.11451
5000.00000	117.20366	-77.65377	117.20366
5050.00000	116.44154	-77.58850	116.44154
5100.00000	115.70323	-74.12071	115.70323
5150.00000	116.04036	-71.67647	116.04036
5200.00000	116.32730	-70.97690	116.32730
5250.00000	116.89384	-76.90009	116.89384
5300.00000	116.39824	-82.80977	116.39824
5350.00000	115.82012	-85.09726	115.82012
5400.00000	115.43016	-86.23721	115.43016
5450.00000	115.18552	-87.12818	115.18552
5500.00000	114.99734	-88.15090	114.99734
5550.00000	114.86643	-89.12249	114.86643
5600.00000	114.80654	-90.08482	114.80654
5650.00000	114.82644	-91.14322	114.82644
5700.00000	114.90693	-92.73025	114.90693
5750.00000	115.06528	-94.65638	115.06528
5800.00000	115.17924	-97.47493	115.17924
5850.00000	115.25531	-100.72344	115.25531
5900.00000	115.26960	-103.89623	115.26960
5950.00000	115.24521	-107.18493	115.24521
6000.00000	115.18968	-110.24778	115.18968
6050.00000	115.11281	-113.26057	115.11281
6100.00000	115.04484	-116.24597	115.04484
6150.00000	114.95945	-119.17156	114.95945
6200.00000	114.86039	-121.99044	114.86039
6250.00000	114.78802	-124.80938	114.78802
6300.00000	114.71183	-127.54181	114.71183
6350.00000	114.62349	-130.41676	114.62349
6400.00000	114.55056	-133.07892	114.55056
6450.00000	114.49485	-135.90222	114.49485
6500.00000	114.42136	-138.78130	114.42136
6550.00000	114.34285	-141.56726	114.34285
6600.00000	114.27805	-144.34329	114.27805
6650.00000	114.23001	-147.11109	114.23001
6700.00000	114.19817	-150.15392	114.19817
6750.00000	114.16703	-153.07727	114.16703
6800.00000	114.14112	-156.08499	114.14112
6850.00000	114.10743	-159.10685	114.10743
6900.00000	114.08841	-162.22181	114.08841
6950.00000	114.05241	-165.36877	114.05241
7000.00000	114.02942	-168.68526	114.02942
7050.00000	113.98731	-172.16364	113.98731
7100.00000	113.96066	-175.84792	113.96066
7150.00000	113.91025	-179.41721	113.91025
7200.00000	113.83352	-183.19706	113.83352
7250.00000	113.73070	-187.19457	113.73070
7300.00000	113.64710	-191.10991	113.64710
7350.00000	113.50685	-195.09211	113.50685
7400.00000	113.36569	-199.31107	113.36569
7450.00000	113.17782	-203.61269	113.17782
7500.00000	112.97227	-207.67769	112.97227
7550.00000	112.71536	-211.79509	112.71536
7600.00000	112.43080	-215.83054	112.43080
7650.00000	112.11538	-219.81534	112.11538
7700.00000	111.81108	-223.74784	111.81108
7750.00000	111.41030	-227.68717	111.41030
7800.00000	111.02115	-231.36290	111.02115
7850.00000	110.61349	-234.73018	110.61349
7900.00000	110.21549	-237.89267	110.21549
7950.00000	109.80854	-241.16877	109.80854
8000.00000	109.42011	-244.10430	109.42011
8050.00000	109.03797	-247.03610	109.03797
8100.00000	108.66742	-248.90025	108.66742
8150.00000	108.25025	-250.97191	108.25025
8200.00000	107.86440	-252.61375	107.86440
8250.00000	107.44746	-254.40438	107.44746
8300.00000	107.05552	-255.69208	107.05552
8350.00000	106.61508	-256.78117	106.61508
8400.00000	106.18457	-258.42612	106.18457
8450.00000	105.66797	-259.90894	105.66797
8500.00000	105.19780	-261.68696	105.19780
8550.00000	104.80351	-263.31241	104.80351
8600.00000	104.40613	-265.54653	104.40613
8650.00000	104.05280	-267.50480	104.05280
8700.00000	103.81445	-269.90188	103.81445
8750.00000	103.54350	-270.59851	103.54350
8800.00000	103.40583	-272.28620	103.40583
8850.00000	103.22530	-273.15808	103.22530
8900.00000	103.07916	-273.38749	103.07916
8950.00000	102.87718	-273.84831	102.87718
9000.00000	102.59368	-273.86203	102.59368
9050.00000	102.32858	-274.60407	102.32858
9100.00000	101.96550	-275.00113	101.96550
9150.00000	101.60224	-275.71648	101.60224
9200.00000	101.29294	-277.06432	101.29294
9250.00000	100.92726	-278.64512	100.92726
9300.00000	100.75471	-280.56531	100.75471
9350.00000	100.65162	-282.53724	100.65162
9400.00000	100.51930	-283.63365	100.51930
9450.00000	100.56321	-284.12283	100.56321
9500.00000	100.69676	-283.64228	100.69676
9550.00000	100.85445	-283.52241	100.85445
9600.00000	100.96055	-284.05898	100.96055
9650.00000	100.86429	-284.36833	100.86429
9700.00000	100.73749	-284.10338	100.73749
9750.00000	100.63341	-285.28091	100.63341
9800.00000	100.38615	-286.07821	100.38615
9850.00000	100.22706	-287.09930	100.22706
9900.00000	99.98746	-289.24095	99.98746
9950.00000	99.95204	-290.82394	99.95204
10000.00000	100.00224	-293.13379	100.00224
10050.00000	100.03592	-294.62106	100.03592
10100.00000	100.10792	-295.62843	100.10792
10150.00000	100.07928	-297.07728	100.07928
10200.00000	100.10107	-298.01428	100.10107
10250.00000	100.01519	-299.27372	100.01519
10300.00000	99.99773	-300.73502	99.99773
10350.00000	99.85096	-302.37494	99.85096
10400.00000	99.68301	-304.82880	99.68301
10450.00000	99.71446	-307.58022	99.71446
10500.00000	99.76303	-310.17840	99.76303
10550.00000	99.81554	-313.00705	99.81554
10600.00000	99.86127	-315.25851	99.86127
10650.00000	99.87490	-317.07044	99.87490
10700.00000	99.87826	-319.79520	99.87826
10750.00000	99.85556	-321.82963	99.85556
10800.00000	99.69696	-323.79582	99.69696
10850.00000	99.53474	-327.04273	99.53474
10900.00000	99.37241	-329.37696	99.37241
10950.00000	99.21030	-331.98326	99.21030
11000.00000	99.03670	-334.81241	99.03670
11050.00000	98.73660	-337.42330	98.73660
11100.00000	98.55859	-340.28887	98.55859
11150.00000	98.25081	-342.42282	98.25081
11200.00000	98.06688	-344.45154	98.06688
11250.00000	97.71116	-346.76456	97.71116
11300.00000	97.31801	-348.98198	97.31801
11350.00000	96.96112	-350.58968	96.96112
11400.00000	96.50524	-352.48559	96.50524
11450.00000	96.17743	-354.69064	96.17743
11500.00000	95.97802	-355.59479	95.97802
11550.00000	95.58445	-356.48122	95.58445
11600.00000	95.37902	-358.07819	95.37902
11650.00000	95.03417	-357.89295	95.03417
11700.00000	94.80407	-358.46629	94.80407
11750.00000	94.57749	-359.16180	94.57749
11800.00000	94.32410	-360.43903	94.32410
11850.00000	94.18819	-360.08051	94.18819
11900.00000	93.83416	-361.05666	93.83416
11950.00000	93.70200	-361.16877	93.70200
12000.00000	93.44788	-361.01707	93.44788
12050.00000	93.14616	-361.08343	93.14616
12100.00000	92.98174	-362.25449	92.98174
12150.00000	92.76385	-363.19580	92.76385
12200.00000	92.63227	-364.29518	92.63227
12250.00000	92.51926	-364.64580	92.51926
12300.00000	93.56840	-365.29624	93.56840
12350.00000	92.32971	-365.67999	92.32971
12400.00000	92.21475	-365.01668	92.21475
12450.00000	92.00911	-364.66814	92.00911
12500.00000	91.80419	-365.08155	91.80419
12550.00000	91.55650	-365.74071	91.55650
12600.00000	91.30863	-367.26809	91.30863
12650.00000	91.38259	-367.95343	91.38259
12700.00000	91.18609	-368.43588	91.18609
12750.00000	91.09218	-369.03870	91.09218
12800.00000	90.93490	-368.47870	90.93490
12850.00000	90.41355	-368.17458	90.41355
12900.00000	90.28493	-368.56245	90.28493
12950.00000	90.14380	-368.68290	90.14380
13000.00000	89.90239	-369.13714	89.90239
13050.00000	89.87531	-368.43875	89.87531
13100.00000	89.67251	-368.36739	89.67251
13150.00000	89.63171	-368.06165	89.63171
13200.00000	89.56962	-366.34958	89.56962
13250.00000	89.47642	-365.16445	89.47642
13300.00000	89.31739	-362.40646	89.31739
13350.00000	89.24879	-362.05200	89.24879
13400.00000	89.30318	-361.27512	89.30318
13450.00000	89.16753	-359.53407	89.16753
13500.00000	89.24500	-358.08759	89.24500
13550.00000	89.23596	-358.04565	89.23596
13600.00000	89.40447	-355.99236	89.40447
13650.00000	89.57687	-354.35105	89.57687
13700.00000	89.53565	-353.06947	89.53565
13750.00000	89.46881	-351.79443	89.46881
13800.00000	89.45875	-352.96448	89.45875
13850.00000	89.55749	-353.61289	89.55749
13900.00000	89.70336	-353.24448	89.70336
13950.00000	90.15521	-352.03680	90.15521
14000.00000	90.71930	-349.28092	90.71930
14050.00000	91.03187	-347.45434	91.03187
14100.00000	91.02233	-345.89470	91.02233
14150.00000	91.28809	-345.61439	91.28809
14200.00000	91.53676	-345.69699	91.53676
14250.00000	92.21377	-344.63649	92.21377
14300.00000	92.63071	-344.72649	92.63071
14350.00000	93.05416	-342.83260	93.05416
14400.00000	93.08936	-342.34942	93.08936
14450.00000	93.45074	-341.36838	93.45074
14500.00000	93.77388	-342.20050	93.77388
14550.00000	94.24378	-341.98000	94.24378
14600.00000	94.53531	-343.71040	94.53531
14650.00000	95.28262	-342.67823	95.28262
14700.00000	95.68975	-346.77870	95.68975
14750.00000	96.18069	-346.60100	96.18069
14800.00000	96.57345	-346.64476	96.57345
14850.00000	97.12279	-347.19678	97.12279
14900.00000	97.66868	-348.51332	97.66868
14950.00000	98.16187	-350.17542	98.16187
15000.00000	98.72163	-352.07335	98.72163
15050.00000	99.08698	-352.59122	99.08698
15100.00000	99.63122	-353.61476	99.63122
15150.00000	100.30053	-356.11676	100.30053
15200.00000	100.66046	-356.69930	100.66046
15250.00000	100.92346	-359.84719	100.92346
15300.00000	101.56934	-362.89167	101.56934
15350.00000	101.97159	-366.56482	101.97159
15400.00000	102.34805	-368.35596	102.34805
15450.00000	102.82359	-371.59033	102.82359
15500.00000	103.29626	-374.47639	103.29626
15550.00000	103.71110	-377.64858	103.71110
15600.00000	104.01810	-381.28578	104.01810
15650.00000	104.49469	-383.06361	104.49469
15700.00000	104.66694	-387.90708	104.66694
15750.00000	105.08127	-390.90278	105.08127
15800.00000	105.41038	-393.58312	105.41038
15850.00000	105.65125	-396.92112	105.65125
15900.00000	105.81910	-400.88876	105.81910
15950.00000	106.09559	-404.46408	106.09559
16000.00000	106.30239	-407.89316	106.30239
16050.00000	106.57083	-411.12624	106.57083
16100.00000	106.60464	-415.04534	106.60464
16150.00000	106.74879	-418.13189	106.74879
16200.00000	106.90746	-422.27416	106.90746
16250.00000	107.05667	-425.24307	107.05667
16300.00000	107.34226	-428.55769	107.34226
16350.00000	107.42700	-431.74948	107.42700
16400.00000	107.55984	-434.51120	107.55984
16450.00000	107.68021	-437.49928	107.68021
16500.00000	107.76118	-440.79995	107.76118
16550.00000	107.92648	-444.40321	107.92648
16600.00000	108.05383	-447.26917	108.05383
16650.00000	108.11380	-450.20119	108.11380
16700.00000	108.24937	-452.84288	108.24937
16750.00000	108.27819	-456.32222	108.27819
16800.00000	108.39806	-459.68926	108.39806
16850.00000	108.56654	-462.56459	108.56654
16900.00000	108.68647	-465.77831	108.68647
16950.00000	108.80406	-468.76085	108.80406
17000.00000	108.75271	-471.80568	108.75271
17050.00000	108.90498	-474.06413	108.90498
17100.00000	108.91409	-476.30749	108.91409
17150.00000	109.12406	-480.03905	109.12406
17200.00000	109.21095	-482.88309	109.21095
17250.00000	109.25901	-486.43477	109.25901
17300.00000	109.43530	-489.34478	109.43530
17350.00000	109.38473	-491.96767	109.38473
17400.00000	109.56247	-495.15025	109.56247
17450.00000	109.56151	-498.70973	109.56151
17500.00000	109.69718	-501.70931	109.69718
17550.00000	109.76377	-504.84362	109.76377
17600.00000	109.93953	-507.58850	109.93953
17650.00000	109.98550	-511.60162	109.98550
17700.00000	110.00856	-514.84080	110.00856
17750.00000	110.18845	-517.49567	110.18845
17800.00000	110.13753	-521.50128	110.13753
17850.00000	110.19601	-524.31691	110.19601
17900.00000	110.20686	-527.98698	110.20686
17950.00000	110.31771	-531.67211	110.31771
18000.00000	110.30355	-535.56640	110.30355
18050.00000	110.43324	-538.52256	110.43324
18100.00000	110.35825	-542.43919	110.35825
18150.00000	110.34358	-545.46499	110.34358
18200.00000	110.25825	-549.44951	110.25825
18250.00000	110.28733	-552.25121	110.28733
18300.00000	110.29825	-555.70410	110.29825
18350.00000	110.24644	-559.08227	110.24644
18400.00000	110.13194	-562.66141	110.13194
18450.00000	110.02939	-567.26164	110.02939
18500.00000	109.96329	-570.33960	109.96329
18550.00000	109.85921	-573.09075	109.85921
18600.00000	109.84802	-576.94794	109.84802
18650.00000	109.60342	-579.77260	109.60342
18700.00000	109.49100	-583.39111	109.49100
18750.00000	109.40934	-586.40965	109.40934
18800.00000	109.39429	-588.89645	109.39429
18850.00000	109.14854	-592.04356	109.14854
18900.00000	108.99084	-594.80996	108.99084
18950.00000	108.89613	-598.14578	108.89613
19000.00000	108.61697	-600.54780	108.61697
19050.00000	108.61638	-603.41222	108.61638
19100.00000	108.44490	-605.71461	108.44490
19150.00000	108.46373	-608.15755	108.46373
19200.00000	108.29671	-610.45890	108.29671
19250.00000	108.17757	-614.05031	108.17757
19300.00000	107.98040	-615.88883	107.98040
19350.00000	107.89704	-618.41411	107.89704
19400.00000	107.74817	-620.66000	107.74817
19450.00000	107.74480	-622.67669	107.74480
19500.00000	107.56209	-625.90959	107.56209
19550.00000	107.47627	-628.20387	107.47627
19600.00000	107.45297	-631.27377	107.45297
19650.00000	107.29960	-633.09588	107.29960
19700.00000	107.09439	-635.71364	107.09439
19750.00000	107.00864	-637.51838	107.00864
19800.00000	106.99403	-640.81971	106.99403
19850.00000	106.91058	-642.88997	106.91058
19900.00000	106.75299	-646.05247	106.75299
19950.00000	106.62484	-648.38696	106.62484
20000.00000	106.54296	-650.77231	106.54296
20050.00000	106.42833	-653.17806	106.42833
20100.00000	106.23956	-655.70912	106.23956
20150.00000	106.17947	-657.32695	106.17947
20200.00000	106.02214	-660.46086	106.02214
20250.00000	105.83771	-662.64668	105.83771
20300.00000	105.61668	-664.91719	105.61668
20350.00000	105.56198	-667.41920	105.56198
20400.00000	105.33355	-668.81518	105.33355
20450.00000	105.09508	-671.11744	105.09508
20500.00000	104.99893	-673.50443	104.99893
20550.00000	104.59177	-674.58560	104.59177
20600.00000	104.51236	-676.24619	104.51236
20650.00000	104.33090	-677.81695	104.33090
20700.00000	104.10574	-679.23486	104.10574
20750.00000	103.99721	-680.48010	103.99721
20800.00000	103.79381	-681.32783	103.79381
20850.00000	103.71208	-682.41912	103.71208
20900.00000	103.52642	-683.30984	103.52642
20950.00000	103.41786	-683.62311	103.41786
21000.00000	103.34332	-684.09417	103.34332
21050.00000	103.44137	-684.37418	103.44137
21100.00000	103.40173	-684.76080	103.40173
21150.00000	103.51816	-685.61996	103.51816
21200.00000	103.61490	-685.97178	103.61490
21250.00000	103.71425	-688.12993	103.71425
21300.00000	103.88874	-688.70855	103.88874
21350.00000	103.97937	-689.95170	103.97937
21400.00000	104.09598	-691.88449	104.09598
21450.00000	104.23951	-693.70430	104.23951
21500.00000	104.34573	-695.93568	104.34573
21550.00000	104.34244	-697.60214	104.34244
21600.00000	104.49427	-700.06082	104.49427
21650.00000	104.51979	-702.50704	104.51979
21700.00000	104.55381	-704.40433	104.55381
21750.00000	104.58693	-706.66890	104.58693
21800.00000	104.58779	-708.90540	104.58779
21850.00000	104.52918	-711.08097	104.52918
21900.00000	104.54021	-713.24411	104.54021
21950.00000	104.51946	-714.92473	104.51946
22000.00000	104.54078	-716.83412	104.54078
22050.00000	104.48547	-718.54635	104.48547
22100.00000	104.47384	-720.44406	104.47384
22150.00000	104.43684	-722.15129	104.43684
22200.00000	104.47405	-723.98674	104.47405
22250.00000	104.41535	-725.56192	104.41535
22300.00000	104.32348	-727.17313	104.32348
22350.00000	104.44546	-729.24490	104.44546
22400.00000	104.47745	-731.20295	104.47745
22450.00000	104.36795	-732.69906	104.36795
22500.00000	104.32759	-733.38443	104.32759
22550.00000	104.33848	-735.62220	104.33848
22600.00000	104.33779	-738.03893	104.33779
22650.00000	104.35853	-739.48263	104.35853
22700.00000	104.36003	-741.08070	104.36003
