---ACOUSTIC CALIBRATION---
Filename: C:\Data\CL0809 DATA\CL08093\RightSecondary.calib
Date: 8/9/2019 12:24:03 PM
Format: 4
Probe Tube Correction File: C:\Data\Probe Tube Calibrations\74_ProbeTube.calib
Experiment VIs: 2128
EPL_CFTS.exe V15.0.1f5 (2015)
DAQmx V15.1

Attenuation (dB): 40.000000
Min Freq (Hz): 50.000000
Max Freq (Hz): 99950.000000
Freq Step (Hz): 50.000000
Sample Rate (Hz): 200000.000000
[Smoothing]
Method=None
MA.Iterations=0
MA.Length=0
Loess.Length=0
Loess.Type=Linear
Loess.Robust=FALSE


Freq(Hz)	Mag(dB)	Phase(deg)	Unsmoothed(dB)

50.00000	91.87371	179.05157	91.87371
100.00000	71.37327	243.69583	71.37327
150.00000	68.52661	490.61760	68.52661
200.00000	65.26078	566.51168	65.26078
250.00000	58.64178	798.23226	58.64178
300.00000	61.52068	870.06607	61.52068
350.00000	61.28745	1021.87950	61.28745
400.00000	61.48508	1078.77275	61.48508
450.00000	65.28595	1113.11082	65.28595
500.00000	71.25002	1227.27136	71.25002
550.00000	78.27794	1152.49330	78.27794
600.00000	76.33292	1116.39256	76.33292
650.00000	83.90436	1105.04159	83.90436
700.00000	83.35188	1104.75892	83.35188
750.00000	87.23576	1071.94095	87.23576
800.00000	88.83672	1053.76894	88.83672
850.00000	87.74447	1040.41236	87.74447
900.00000	88.28884	1034.21231	88.28884
950.00000	89.65231	1016.75253	89.65231
1000.00000	89.69648	1009.70552	89.69648
1050.00000	89.66390	993.12809	89.66390
1100.00000	88.86831	984.88168	88.86831
1150.00000	87.97218	982.48555	87.97218
1200.00000	87.51187	988.94429	87.51187
1250.00000	88.24924	992.85578	88.24924
1300.00000	89.69375	992.23085	89.69375
1350.00000	90.31671	989.08926	90.31671
1400.00000	91.13509	990.43665	91.13509
1450.00000	92.14434	989.69982	92.14434
1500.00000	93.46384	987.69181	93.46384
1550.00000	94.73729	982.73505	94.73729
1600.00000	96.07354	978.19384	96.07354
1650.00000	97.14457	973.90398	97.14457
1700.00000	101.26158	957.24515	101.26158
1750.00000	98.31636	936.19093	98.31636
1800.00000	98.07442	931.08778	98.07442
1850.00000	97.84274	923.38610	97.84274
1900.00000	97.84417	915.84164	97.84417
1950.00000	97.17806	908.89089	97.17806
2000.00000	96.37640	903.63313	96.37640
2050.00000	95.31835	903.90507	95.31835
2100.00000	95.66470	910.65699	95.66470
2150.00000	96.98815	906.92143	96.98815
2200.00000	97.26574	897.40478	97.26574
2250.00000	96.70170	892.29148	96.70170
2300.00000	96.30693	890.94495	96.30693
2350.00000	96.28302	888.53405	96.28302
2400.00000	96.36161	886.53248	96.36161
2450.00000	96.15608	882.08285	96.15608
2500.00000	95.53325	882.65311	95.53325
2550.00000	95.69191	882.65315	95.69191
2600.00000	95.85551	881.38341	95.85551
2650.00000	96.04245	880.84493	96.04245
2700.00000	96.21734	878.91440	96.21734
2750.00000	96.42906	877.37639	96.42906
2800.00000	96.69483	875.20835	96.69483
2850.00000	96.97913	873.55351	96.97913
2900.00000	97.28312	871.43779	97.28312
2950.00000	97.58326	869.35060	97.58326
3000.00000	97.78407	867.23871	97.78407
3050.00000	98.01093	864.62929	98.01093
3100.00000	98.23916	861.92384	98.23916
3150.00000	98.26443	859.55893	98.26443
3200.00000	98.40571	856.72941	98.40571
3250.00000	98.63169	854.65206	98.63169
3300.00000	98.64197	852.49990	98.64197
3350.00000	98.86909	850.79649	98.86909
3400.00000	98.98501	849.14785	98.98501
3450.00000	99.15163	848.24872	99.15163
3500.00000	99.35763	847.56396	99.35763
3550.00000	100.03563	845.63837	100.03563
3600.00000	100.11500	842.29479	100.11500
3650.00000	100.41003	841.93729	100.41003
3700.00000	100.66438	840.67805	100.66438
3750.00000	101.18736	838.29027	101.18736
3800.00000	102.01900	836.81324	102.01900
3850.00000	102.56602	827.98629	102.56602
3900.00000	102.96451	820.82827	102.96451
3950.00000	102.21711	818.01302	102.21711
4000.00000	101.86606	819.73494	101.86606
4050.00000	102.27535	821.38154	102.27535
4100.00000	102.97979	822.02412	102.97979
4150.00000	104.63777	819.39074	104.63777
4200.00000	105.62576	814.89986	105.62576
4250.00000	105.76578	802.44400	105.76578
4300.00000	105.90415	799.52685	105.90415
4350.00000	106.32873	794.85933	106.32873
4400.00000	106.70574	788.90533	106.70574
4450.00000	106.83434	781.99330	106.83434
4500.00000	106.99113	775.97997	106.99113
4550.00000	106.93500	770.70100	106.93500
4600.00000	107.00185	765.32807	107.00185
4650.00000	107.05224	760.60015	107.05224
4700.00000	107.06549	755.75223	107.06549
4750.00000	107.09188	751.08866	107.09188
4800.00000	107.14347	746.65428	107.14347
4850.00000	107.20212	741.79223	107.20212
4900.00000	107.25210	736.28654	107.25210
4950.00000	107.27269	731.02781	107.27269
5000.00000	107.22304	725.36399	107.22304
5050.00000	107.13874	719.66734	107.13874
5100.00000	106.97378	713.83086	106.97378
5150.00000	106.69751	707.95307	106.69751
5200.00000	106.22306	702.11740	106.22306
5250.00000	105.29337	699.39348	105.29337
5300.00000	105.48703	701.51211	105.48703
5350.00000	105.89509	695.75093	105.89509
5400.00000	105.74374	689.43362	105.74374
5450.00000	105.42645	684.38892	105.42645
5500.00000	105.10733	679.80231	105.10733
5550.00000	104.80379	675.85847	104.80379
5600.00000	104.46875	671.41841	104.46875
5650.00000	104.02992	667.78733	104.02992
5700.00000	103.61534	664.19082	103.61534
5750.00000	103.23277	661.03956	103.23277
5800.00000	102.85422	658.33431	102.85422
5850.00000	102.47597	655.71528	102.47597
5900.00000	102.12509	653.07558	102.12509
5950.00000	101.80234	650.70327	101.80234
6000.00000	101.48124	648.39096	101.48124
6050.00000	101.17156	645.99289	101.17156
6100.00000	100.82982	643.65629	100.82982
6150.00000	100.45321	641.34067	100.45321
6200.00000	100.09574	639.53065	100.09574
6250.00000	99.74849	637.78473	99.74849
6300.00000	99.42345	636.05594	99.42345
6350.00000	99.09634	634.81462	99.09634
6400.00000	98.80868	633.57349	98.80868
6450.00000	98.50233	632.50923	98.50233
6500.00000	98.20755	631.64753	98.20755
6550.00000	97.94579	631.32798	97.94579
6600.00000	97.77885	630.95931	97.77885
6650.00000	97.62087	630.50463	97.62087
6700.00000	97.55799	630.18648	97.55799
6750.00000	97.62961	629.39423	97.62961
6800.00000	97.70662	628.03701	97.70662
6850.00000	97.78790	626.00340	97.78790
6900.00000	97.74956	623.65986	97.74956
6950.00000	97.68669	621.18574	97.68669
7000.00000	97.50721	618.55271	97.50721
7050.00000	97.27917	616.11724	97.27917
7100.00000	96.97546	613.98760	96.97546
7150.00000	96.75526	611.93630	96.75526
7200.00000	96.44125	610.29007	96.44125
7250.00000	96.10254	609.21546	96.10254
7300.00000	95.78164	608.63942	95.78164
7350.00000	95.53388	608.36914	95.53388
7400.00000	95.25174	608.48081	95.25174
7450.00000	95.00732	609.20704	95.00732
7500.00000	94.88789	610.45579	94.88789
7550.00000	94.85787	611.10323	94.85787
7600.00000	94.86238	611.25083	94.86238
7650.00000	94.99837	611.96229	94.99837
7700.00000	95.23692	612.16185	95.23692
7750.00000	95.50218	611.38737	95.50218
7800.00000	95.67336	610.80551	95.67336
7850.00000	95.77995	610.15380	95.77995
7900.00000	96.00346	608.98106	96.00346
7950.00000	96.15322	607.24714	96.15322
8000.00000	96.24073	605.59603	96.24073
8050.00000	96.38074	604.15871	96.38074
8100.00000	96.54960	602.44294	96.54960
8150.00000	96.69618	600.56243	96.69618
8200.00000	96.79851	599.00305	96.79851
8250.00000	96.89783	597.52579	96.89783
8300.00000	96.99738	595.96551	96.99738
8350.00000	97.10281	593.83547	97.10281
8400.00000	97.17067	591.85148	97.17067
8450.00000	97.23931	590.02277	97.23931
8500.00000	97.37261	588.06860	97.37261
8550.00000	97.48301	586.12833	97.48301
8600.00000	97.55594	584.29972	97.55594
8650.00000	97.62951	582.60143	97.62951
8700.00000	97.70427	580.84754	97.70427
8750.00000	97.76169	578.85084	97.76169
8800.00000	97.78222	576.53364	97.78222
8850.00000	97.87456	574.94398	97.87456
8900.00000	97.95761	573.03604	97.95761
8950.00000	98.10935	571.13129	98.10935
9000.00000	98.14322	568.91195	98.14322
9050.00000	98.17761	567.15500	98.17761
9100.00000	98.25297	565.60525	98.25297
9150.00000	98.35296	563.49773	98.35296
9200.00000	98.41075	561.33098	98.41075
9250.00000	98.45247	559.09609	98.45247
9300.00000	98.57187	557.37035	98.57187
9350.00000	98.68137	554.99481	98.68137
9400.00000	98.73618	552.70790	98.73618
9450.00000	98.79092	550.68350	98.79092
9500.00000	98.89316	548.44834	98.89316
9550.00000	98.99626	546.10048	98.99626
9600.00000	99.14086	543.68660	99.14086
9650.00000	99.27183	541.20520	99.27183
9700.00000	99.35475	538.69734	99.35475
9750.00000	99.45385	536.34952	99.45385
9800.00000	99.51745	533.60644	99.51745
9850.00000	99.58428	530.98728	99.58428
9900.00000	99.66218	528.63957	99.66218
9950.00000	99.71485	526.13007	99.71485
10000.00000	99.89235	523.76341	99.89235
10050.00000	99.97641	520.85037	99.97641
10100.00000	100.03621	518.03214	100.03621
10150.00000	100.02498	515.26001	100.02498
10200.00000	100.06192	512.19510	100.06192
10250.00000	100.03985	509.47564	100.03985
10300.00000	100.04644	506.78971	100.04644
10350.00000	100.02959	504.06094	100.02959
10400.00000	100.01903	501.37155	100.01903
10450.00000	100.02185	498.46743	100.02185
10500.00000	99.98206	495.53847	99.98206
10550.00000	99.96206	492.87020	99.96206
10600.00000	100.00274	489.62289	100.00274
10650.00000	100.00032	486.70009	100.00032
10700.00000	100.00862	483.27910	100.00862
10750.00000	99.94338	480.42624	99.94338
10800.00000	99.95955	477.16565	99.95955
10850.00000	99.97763	473.95185	99.97763
10900.00000	99.95125	470.66039	99.95125
10950.00000	99.89418	467.34115	99.89418
11000.00000	99.87176	464.24046	99.87176
11050.00000	99.77861	461.07254	99.77861
11100.00000	99.73633	457.67192	99.73633
11150.00000	99.60530	454.18263	99.60530
11200.00000	99.47114	450.86052	99.47114
11250.00000	99.26840	447.22139	99.26840
11300.00000	99.08383	443.86051	99.08383
11350.00000	98.85953	440.37376	98.85953
11400.00000	98.58530	436.85207	98.58530
11450.00000	98.26812	433.28002	98.26812
11500.00000	97.98598	429.72860	97.98598
11550.00000	97.64559	426.26413	97.64559
11600.00000	97.27665	423.04149	97.27665
11650.00000	96.86759	420.04386	96.86759
11700.00000	96.46906	417.36491	96.46906
11750.00000	96.06484	414.96460	96.06484
11800.00000	95.68012	413.04805	95.68012
11850.00000	95.31760	411.01964	95.31760
11900.00000	94.85522	409.82711	94.85522
11950.00000	94.49477	409.04616	94.49477
12000.00000	94.16510	408.64940	94.16510
12050.00000	93.79589	408.81833	93.79589
12100.00000	93.38443	408.37608	93.38443
12150.00000	92.98325	408.30964	92.98325
12200.00000	92.70405	408.59711	92.70405
12250.00000	92.42120	408.90756	92.42120
12300.00000	91.98793	408.81882	91.98793
12350.00000	91.73681	408.99566	91.73681
12400.00000	91.42856	408.76562	91.42856
12450.00000	91.27420	408.57774	91.27420
12500.00000	91.15359	409.32518	91.15359
12550.00000	90.95466	409.17449	90.95466
12600.00000	91.00144	408.55897	91.00144
12650.00000	90.93866	409.61725	90.93866
12700.00000	90.83716	409.14048	90.83716
12750.00000	90.74809	409.60842	90.74809
12800.00000	90.81159	409.50856	90.81159
12850.00000	90.68624	410.07717	90.68624
12900.00000	90.65029	409.30048	90.65029
12950.00000	90.72651	408.21647	90.72651
13000.00000	90.69143	406.79495	90.69143
13050.00000	90.57963	405.34048	90.57963
13100.00000	90.73547	403.06179	90.73547
13150.00000	91.04487	401.88122	91.04487
13200.00000	91.39185	397.91053	91.39185
13250.00000	91.98304	393.59752	91.98304
13300.00000	92.86499	394.18759	92.86499
13350.00000	94.00333	392.93559	94.00333
13400.00000	95.16960	397.03266	95.16960
13450.00000	95.88704	406.74600	95.88704
13500.00000	95.62710	420.53192	95.62710
13550.00000	94.57446	426.88395	94.57446
13600.00000	92.83302	429.52160	92.83302
13650.00000	91.31703	427.83663	91.31703
13700.00000	90.20197	423.37402	90.20197
13750.00000	89.47448	414.52648	89.47448
13800.00000	89.22822	405.77537	89.22822
13850.00000	89.32270	397.36420	89.32270
13900.00000	89.78157	387.72063	89.78157
13950.00000	90.64541	381.84347	90.64541
14000.00000	92.10680	377.06415	92.10680
14050.00000	93.98702	376.83413	93.98702
14100.00000	96.02490	379.85682	96.02490
14150.00000	97.42880	392.79004	97.42880
14200.00000	97.55297	407.96764	97.55297
14250.00000	96.32311	420.10390	96.32311
14300.00000	94.94382	424.59074	94.94382
14350.00000	93.77567	422.53806	93.77567
14400.00000	93.08445	419.99844	93.08445
14450.00000	92.55448	414.44782	92.55448
14500.00000	92.35604	408.93431	92.35604
14550.00000	92.65969	401.60263	92.65969
14600.00000	92.87720	396.32836	92.87720
14650.00000	93.52737	390.80355	93.52737
14700.00000	94.32373	384.51614	94.32373
14750.00000	95.26516	380.01223	95.26516
14800.00000	96.17382	377.43781	96.17382
14850.00000	97.36688	376.72723	97.36688
14900.00000	98.41887	377.59484	98.41887
14950.00000	99.08897	380.60748	99.08897
15000.00000	99.27843	383.61926	99.27843
15050.00000	99.21057	386.29889	99.21057
15100.00000	98.87736	386.50880	98.87736
15150.00000	98.54311	384.33627	98.54311
15200.00000	98.33841	381.08368	98.33841
15250.00000	98.10118	376.41880	98.10118
15300.00000	98.06912	370.99994	98.06912
15350.00000	98.33792	365.76576	98.33792
15400.00000	98.48998	360.13013	98.48998
15450.00000	98.84544	354.06499	98.84544
15500.00000	99.32545	349.59331	99.32545
15550.00000	99.77631	346.34426	99.77631
15600.00000	100.21124	343.47378	100.21124
15650.00000	100.74111	341.35558	100.74111
15700.00000	100.79418	339.86192	100.79418
15750.00000	100.96551	339.04085	100.96551
15800.00000	100.75955	338.18256	100.75955
15850.00000	100.55917	336.90770	100.55917
15900.00000	100.26530	335.11787	100.26530
15950.00000	100.02526	332.53070	100.02526
16000.00000	99.91005	329.77901	99.91005
16050.00000	99.85433	326.29025	99.85433
16100.00000	99.85195	322.91236	99.85195
16150.00000	99.97808	319.88077	99.97808
16200.00000	100.20956	317.38496	100.20956
16250.00000	100.41245	314.00332	100.41245
16300.00000	100.66789	312.11693	100.66789
16350.00000	100.89039	310.40358	100.89039
16400.00000	101.06757	308.43330	101.06757
16450.00000	101.16477	307.24705	101.16477
16500.00000	101.24778	305.62469	101.24778
16550.00000	101.30384	303.58293	101.30384
16600.00000	101.28407	301.39968	101.28407
16650.00000	101.23147	298.79703	101.23147
16700.00000	101.17020	296.37741	101.17020
16750.00000	101.24724	293.61892	101.24724
16800.00000	101.27316	290.93115	101.27316
16850.00000	101.41531	288.11022	101.41531
16900.00000	101.62551	285.96373	101.62551
16950.00000	101.67571	283.29596	101.67571
17000.00000	101.79051	281.07989	101.79051
17050.00000	101.91954	279.39383	101.91954
17100.00000	102.05917	277.59159	102.05917
17150.00000	102.15018	275.14654	102.15018
17200.00000	102.14034	273.31012	102.14034
17250.00000	102.18812	270.56663	102.18812
17300.00000	102.22745	267.81313	102.22745
17350.00000	102.32513	265.17099	102.32513
17400.00000	102.39708	262.08625	102.39708
17450.00000	102.45053	259.14409	102.45053
17500.00000	102.51351	256.74526	102.51351
17550.00000	102.61081	253.75219	102.61081
17600.00000	102.72580	251.17811	102.72580
17650.00000	102.79301	248.34852	102.79301
17700.00000	102.80833	246.05011	102.80833
17750.00000	102.89834	243.24814	102.89834
17800.00000	102.86848	240.99857	102.86848
17850.00000	102.87508	238.67485	102.87508
17900.00000	102.94006	236.23578	102.94006
17950.00000	102.91197	233.56725	102.91197
18000.00000	102.88210	231.15060	102.88210
18050.00000	102.89068	228.78726	102.89068
18100.00000	102.94749	226.15012	102.94749
18150.00000	102.95893	223.22761	102.95893
18200.00000	102.97178	220.45901	102.97178
18250.00000	102.96949	217.69466	102.96949
18300.00000	102.93532	214.92306	102.93532
18350.00000	102.91206	212.38752	102.91206
18400.00000	102.82538	209.72055	102.82538
18450.00000	102.83664	207.89509	102.83664
18500.00000	102.84962	205.41321	102.84962
18550.00000	102.81358	202.98048	102.81358
18600.00000	102.74908	200.70697	102.74908
18650.00000	102.75553	198.26499	102.75553
18700.00000	102.73449	196.38353	102.73449
18750.00000	102.71493	193.99751	102.71493
18800.00000	102.70695	191.30021	102.70695
18850.00000	102.60141	189.33101	102.60141
18900.00000	102.52211	187.05053	102.52211
18950.00000	102.42075	184.99713	102.42075
19000.00000	102.35892	183.44765	102.35892
19050.00000	102.35666	181.23704	102.35666
19100.00000	102.28175	179.35133	102.28175
19150.00000	102.29183	177.97052	102.29183
19200.00000	102.30503	176.00863	102.30503
19250.00000	102.28113	174.17780	102.28113
19300.00000	102.31225	172.36276	102.31225
19350.00000	102.29042	170.25875	102.29042
19400.00000	102.20612	168.92522	102.20612
19450.00000	102.22168	167.51266	102.22168
19500.00000	102.30221	165.92713	102.30221
19550.00000	102.40668	164.34946	102.40668
19600.00000	102.38931	162.50713	102.38931
19650.00000	102.44350	160.57906	102.44350
19700.00000	102.47533	158.88613	102.47533
19750.00000	102.54320	157.07600	102.54320
19800.00000	102.59215	155.89790	102.59215
19850.00000	102.71580	153.99447	102.71580
19900.00000	102.82532	152.22902	102.82532
19950.00000	102.93198	150.49411	102.93198
20000.00000	103.07568	148.17180	103.07568
20050.00000	103.13908	145.96685	103.13908
20100.00000	103.23759	144.03161	103.23759
20150.00000	103.35501	141.88477	103.35501
20200.00000	103.43945	139.61778	103.43945
20250.00000	103.59223	137.86706	103.59223
20300.00000	103.69892	135.50596	103.69892
20350.00000	103.83485	133.12845	103.83485
20400.00000	103.92745	130.69431	103.92745
20450.00000	104.05931	128.28761	104.05931
20500.00000	104.20018	125.67474	104.20018
20550.00000	104.28862	122.83215	104.28862
20600.00000	104.35824	120.11483	104.35824
20650.00000	104.45761	117.47178	104.45761
20700.00000	104.57134	114.94551	104.57134
20750.00000	104.60314	112.14595	104.60314
20800.00000	104.68006	109.33241	104.68006
20850.00000	104.72755	106.35107	104.72755
20900.00000	104.77099	103.55067	104.77099
20950.00000	104.81672	100.51156	104.81672
21000.00000	104.88683	97.33346	104.88683
21050.00000	104.91761	94.60029	104.91761
21100.00000	104.94177	91.78845	104.94177
21150.00000	104.95107	88.78728	104.95107
21200.00000	104.91611	85.99722	104.91611
21250.00000	104.87686	83.15311	104.87686
21300.00000	104.86055	80.09800	104.86055
21350.00000	104.82185	77.13148	104.82185
21400.00000	104.80915	74.03957	104.80915
21450.00000	104.80201	71.13093	104.80201
21500.00000	104.76649	68.52419	104.76649
21550.00000	104.71880	65.84585	104.71880
21600.00000	104.63742	62.94407	104.63742
21650.00000	104.55894	60.56055	104.55894
21700.00000	104.45420	57.56404	104.45420
21750.00000	104.37773	54.89102	104.37773
21800.00000	104.29595	52.02431	104.29595
21850.00000	104.22743	49.59615	104.22743
21900.00000	104.11412	47.25425	104.11412
21950.00000	104.06574	44.93811	104.06574
22000.00000	103.86325	42.68435	103.86325
22050.00000	103.78374	40.59393	103.78374
22100.00000	103.70314	38.80239	103.70314
22150.00000	103.63169	36.57881	103.63169
22200.00000	103.54409	34.38586	103.54409
22250.00000	103.50845	32.30123	103.50845
22300.00000	103.44561	30.23643	103.44561
22350.00000	103.37282	28.15850	103.37282
22400.00000	103.35955	25.93788	103.35955
22450.00000	103.31196	24.22693	103.31196
22500.00000	103.27792	21.82002	103.27792
22550.00000	103.25861	19.77816	103.25861
22600.00000	103.21245	17.81186	103.21245
22650.00000	103.13670	16.15124	103.13670
22700.00000	103.10011	14.13830	103.10011
22750.00000	103.12844	11.66990	103.12844
22800.00000	103.09816	 9.56275	103.09816
22850.00000	103.02535	 7.50432	103.02535
22900.00000	103.05286	 5.63004	103.05286
22950.00000	103.02242	 3.56229	103.02242
23000.00000	103.01895	 1.63085	103.01895
23050.00000	103.00772	-0.38178	103.00772
23100.00000	102.96881	-2.67450	102.96881
23150.00000	102.90830	-5.01807	102.90830
23200.00000	102.92219	-7.57969	102.92219
23250.00000	102.97309	-9.77100	102.97309
23300.00000	102.99809	-12.41505	102.99809
23350.00000	102.93787	-14.18299	102.93787
23400.00000	102.91925	-16.28168	102.91925
23450.00000	102.88945	-18.54749	102.88945
