---ACOUSTIC CALIBRATION---
Filename: C:\Data\CL0809 DATA\CL08093\RightPrimary.calib
Date: 8/9/2019 12:23:56 PM
Format: 4
Probe Tube Correction File: C:\Data\Probe Tube Calibrations\74_ProbeTube.calib
Experiment VIs: 2128
EPL_CFTS.exe V15.0.1f5 (2015)
DAQmx V15.1

Attenuation (dB): 40.000000
Min Freq (Hz): 50.000000
Max Freq (Hz): 99950.000000
Freq Step (Hz): 50.000000
Sample Rate (Hz): 200000.000000
[Smoothing]
Method=None
MA.Iterations=0
MA.Length=0
Loess.Length=0
Loess.Type=Linear
Loess.Robust=FALSE


Freq(Hz)	Mag(dB)	Phase(deg)	Unsmoothed(dB)

50.00000	97.77804	142.45306	97.77804
100.00000	64.72207	44.29981	64.72207
150.00000	72.20434	263.84502	72.20434
200.00000	62.99524	467.13276	62.99524
250.00000	60.75407	598.64137	60.75407
300.00000	65.58139	778.08898	65.58139
350.00000	61.82303	991.79415	61.82303
400.00000	61.88802	1074.98880	61.88802
450.00000	62.81339	1115.44612	62.81339
500.00000	65.56101	1223.58943	65.56101
550.00000	69.06751	1168.96517	69.06751
600.00000	68.04153	1152.54931	68.04153
650.00000	75.99398	1131.32778	75.99398
700.00000	73.27465	1129.47078	73.27465
750.00000	76.84212	1092.72455	76.84212
800.00000	76.99088	1091.14452	76.99088
850.00000	75.96133	1088.34876	75.96133
900.00000	77.07586	1094.61707	77.07586
950.00000	79.62005	1086.64989	79.62005
1000.00000	81.53548	1091.22549	81.53548
1050.00000	84.33962	1080.56117	84.33962
1100.00000	87.01805	1067.59027	87.01805
1150.00000	88.59183	1052.01051	88.59183
1200.00000	89.32825	1039.07396	89.32825
1250.00000	89.65429	1028.25123	89.65429
1300.00000	90.42881	1022.18827	90.42881
1350.00000	91.87823	1012.01340	91.87823
1400.00000	92.47687	1000.35165	92.47687
1450.00000	92.75050	988.40348	92.75050
1500.00000	92.78860	980.75080	92.78860
1550.00000	92.93296	973.14605	92.93296
1600.00000	93.44119	968.98983	93.44119
1650.00000	94.11804	965.94685	94.11804
1700.00000	97.83628	950.85508	97.83628
1750.00000	94.88081	931.11231	94.88081
1800.00000	94.52234	926.10117	94.52234
1850.00000	94.21139	919.23793	94.21139
1900.00000	93.99628	913.47532	93.99628
1950.00000	93.55626	909.13456	93.55626
2000.00000	93.14783	906.56206	93.14783
2050.00000	93.51092	905.82561	93.51092
2100.00000	94.12748	900.15348	94.12748
2150.00000	94.64558	892.05910	94.64558
2200.00000	94.29253	879.81994	94.29253
2250.00000	93.22754	874.44505	93.22754
2300.00000	92.81281	872.94002	92.81281
2350.00000	92.87354	868.42963	92.87354
2400.00000	92.89071	863.01444	92.89071
2450.00000	92.50774	855.05732	92.50774
2500.00000	91.76141	851.55642	91.76141
2550.00000	91.28262	847.24566	91.28262
2600.00000	90.82712	843.01165	90.82712
2650.00000	90.21830	840.54789	90.21830
2700.00000	89.66885	837.72078	89.66885
2750.00000	89.13334	835.69798	89.13334
2800.00000	88.78770	833.19598	88.78770
2850.00000	88.22909	831.13543	88.22909
2900.00000	87.79691	830.61483	87.79691
2950.00000	87.48091	829.89846	87.48091
3000.00000	87.27748	829.93051	87.27748
3050.00000	87.13789	828.10004	87.13789
3100.00000	86.96693	825.60933	86.96693
3150.00000	86.50713	823.46251	86.50713
3200.00000	86.07169	821.45159	86.07169
3250.00000	85.69988	819.79297	85.69988
3300.00000	85.04771	820.44609	85.04771
3350.00000	84.71225	819.76154	84.71225
3400.00000	84.22849	819.40043	84.22849
3450.00000	83.93315	819.25320	83.93315
3500.00000	83.37872	818.79256	83.37872
3550.00000	83.01952	816.06162	83.01952
3600.00000	81.80149	815.38232	81.80149
3650.00000	80.61744	818.65504	80.61744
3700.00000	79.25524	824.15798	79.25524
3750.00000	78.21588	831.43077	78.21588
3800.00000	77.70595	844.56060	77.70595
3850.00000	77.63940	853.89342	77.63940
3900.00000	78.31046	863.24962	78.31046
3950.00000	78.19606	873.04426	78.19606
4000.00000	78.74316	886.15795	78.74316
4050.00000	80.77210	899.68016	80.77210
4100.00000	82.73557	905.12615	82.73557
4150.00000	85.34326	906.69600	85.34326
4200.00000	87.13838	906.97386	87.13838
4250.00000	88.08840	898.75838	88.08840
4300.00000	88.96239	900.63501	88.96239
4350.00000	90.32198	902.26900	90.32198
4400.00000	92.12071	899.27756	92.12071
4450.00000	93.20912	893.13931	93.20912
4500.00000	94.18278	888.12218	94.18278
4550.00000	94.79105	883.58878	94.79105
4600.00000	95.37408	879.96719	95.37408
4650.00000	96.05609	879.05027	96.05609
4700.00000	96.94849	877.80686	96.94849
4750.00000	98.00118	875.92645	98.00118
4800.00000	99.12106	873.20973	99.12106
4850.00000	100.26819	869.63905	100.26819
4900.00000	101.45920	864.93594	101.45920
4950.00000	102.67584	860.01201	102.67584
5000.00000	103.93280	854.17192	103.93280
5050.00000	105.30940	847.62060	105.30940
5100.00000	106.89246	839.82076	106.89246
5150.00000	108.80049	829.50653	108.80049
5200.00000	111.21107	812.80199	111.21107
5250.00000	113.41954	779.54641	113.41954
5300.00000	111.22488	732.51683	111.22488
5350.00000	105.31501	710.98143	105.31501
5400.00000	100.16705	715.22622	100.16705
5450.00000	97.68504	727.50279	97.68504
5500.00000	95.73959	734.21048	95.73959
5550.00000	93.47583	750.39888	93.47583
5600.00000	93.77832	774.41218	93.77832
5650.00000	95.97358	786.84258	95.97358
5700.00000	98.02330	788.04357	98.02330
5750.00000	99.46731	784.17588	99.46731
5800.00000	100.17677	779.62678	100.17677
5850.00000	100.48966	776.08962	100.48966
5900.00000	100.71133	774.37231	100.71133
5950.00000	101.06271	774.03423	101.06271
6000.00000	101.58037	773.93657	101.58037
6050.00000	102.22544	773.31566	102.22544
6100.00000	102.94035	772.12572	102.94035
6150.00000	103.68641	770.44252	103.68641
6200.00000	104.49234	768.52933	104.49234
6250.00000	105.33094	765.98206	105.33094
6300.00000	106.25101	762.85380	106.25101
6350.00000	107.22381	758.86715	107.22381
6400.00000	108.20982	753.98891	108.20982
6450.00000	109.18124	747.87712	109.18124
6500.00000	110.05653	740.77496	110.05653
6550.00000	110.87164	732.96032	110.87164
6600.00000	111.56987	724.43056	111.56987
6650.00000	112.16620	715.27088	112.16620
6700.00000	112.64838	705.35725	112.64838
6750.00000	112.95078	694.72218	112.95078
6800.00000	113.00583	683.75270	113.00583
6850.00000	112.80376	673.12843	112.80376
6900.00000	112.39447	663.38963	112.39447
6950.00000	111.85924	654.84932	111.85924
7000.00000	111.28507	647.39845	111.28507
7050.00000	110.69533	640.90578	110.69533
7100.00000	110.11018	635.31379	110.11018
7150.00000	109.56765	630.28558	109.56765
7200.00000	109.07014	625.72215	109.07014
7250.00000	108.62389	621.42052	108.62389
7300.00000	108.20739	617.39055	108.20739
7350.00000	107.83832	613.27198	107.83832
7400.00000	107.45578	609.15613	107.45578
7450.00000	107.07018	605.10617	107.07018
7500.00000	106.66734	601.10446	106.66734
7550.00000	106.26305	597.27965	106.26305
7600.00000	105.83251	593.52203	105.83251
7650.00000	105.39923	589.94940	105.39923
7700.00000	104.95137	586.70412	104.95137
7750.00000	104.49501	583.77862	104.49501
7800.00000	104.04757	581.27192	104.04757
7850.00000	103.61712	578.85755	103.61712
7900.00000	103.23495	576.81994	103.23495
7950.00000	102.86291	574.81241	102.86291
8000.00000	102.51001	573.03164	102.51001
8050.00000	102.19218	571.40576	102.19218
8100.00000	101.89578	569.71238	101.89578
8150.00000	101.64776	568.18602	101.64776
8200.00000	101.39741	566.52787	101.39741
8250.00000	101.15220	565.08768	101.15220
8300.00000	100.97232	563.70683	100.97232
8350.00000	100.77165	562.30842	100.77165
8400.00000	100.62590	560.83616	100.62590
8450.00000	100.48727	559.32715	100.48727
8500.00000	100.35392	557.90068	100.35392
8550.00000	100.26585	556.26875	100.26585
8600.00000	100.15623	554.59851	100.15623
8650.00000	100.07271	552.96781	100.07271
8700.00000	99.95921	551.23044	99.95921
8750.00000	99.89761	549.58205	99.89761
8800.00000	99.79146	548.00806	99.79146
8850.00000	99.76441	546.61847	99.76441
8900.00000	99.69737	544.69188	99.69737
8950.00000	99.68301	543.20407	99.68301
9000.00000	99.64684	541.38743	99.64684
9050.00000	99.60406	539.58455	99.60406
9100.00000	99.63149	537.91333	99.63149
9150.00000	99.66552	535.99519	99.66552
9200.00000	99.64759	533.98932	99.64759
9250.00000	99.64891	531.81794	99.64891
9300.00000	99.70330	529.84635	99.70330
9350.00000	99.72246	527.62401	99.72246
9400.00000	99.72522	525.46256	99.72522
9450.00000	99.80513	523.31898	99.80513
9500.00000	99.84409	520.75010	99.84409
9550.00000	99.86672	518.37539	99.86672
9600.00000	99.96273	515.79376	99.96273
9650.00000	100.02366	513.02256	100.02366
9700.00000	100.02944	509.94166	100.02944
9750.00000	100.02116	506.78604	100.02116
9800.00000	99.91726	503.79506	99.91726
9850.00000	99.76873	500.89365	99.76873
9900.00000	99.53177	498.79451	99.53177
9950.00000	99.27076	498.30719	99.27076
10000.00000	99.32371	500.00326	99.32371
10050.00000	100.01164	500.35742	100.01164
10100.00000	100.72312	496.09782	100.72312
10150.00000	100.99039	490.54279	100.99039
10200.00000	101.12808	485.61653	101.12808
10250.00000	101.14573	480.96297	101.14573
10300.00000	101.13469	476.79503	101.13469
10350.00000	101.12197	472.55786	101.12197
10400.00000	101.02586	468.47078	101.02586
10450.00000	101.00312	464.34037	101.00312
10500.00000	100.93941	460.18392	100.93941
10550.00000	100.85007	456.39464	100.85007
10600.00000	100.84468	452.02265	100.84468
10650.00000	100.75642	448.02011	100.75642
10700.00000	100.69022	443.77320	100.69022
10750.00000	100.57944	439.78077	100.57944
10800.00000	100.49780	435.46887	100.49780
10850.00000	100.41771	431.16554	100.41771
10900.00000	100.29917	426.99920	100.29917
10950.00000	100.16664	422.69703	100.16664
11000.00000	100.06571	418.26293	100.06571
11050.00000	99.86684	413.82335	99.86684
11100.00000	99.70326	409.35945	99.70326
11150.00000	99.48150	404.82666	99.48150
11200.00000	99.27278	400.39109	99.27278
11250.00000	98.97414	395.36582	98.97414
11300.00000	98.67644	390.84283	98.67644
11350.00000	98.35165	386.11796	98.35165
11400.00000	97.97669	381.32311	97.97669
11450.00000	97.60043	376.66602	97.60043
11500.00000	97.19601	371.96853	97.19601
11550.00000	96.73666	367.36844	96.73666
11600.00000	96.27446	363.03050	96.27446
11650.00000	95.76334	358.51071	95.76334
11700.00000	95.27287	354.49732	95.27287
11750.00000	94.74932	350.53705	94.74932
11800.00000	94.28344	346.64749	94.28344
11850.00000	93.75788	343.07414	93.75788
11900.00000	93.21094	339.79683	93.21094
11950.00000	92.68105	336.92781	92.68105
12000.00000	92.19947	334.18705	92.19947
12050.00000	91.64391	331.63947	91.64391
12100.00000	91.08979	329.10763	91.08979
12150.00000	90.53199	326.67084	90.53199
12200.00000	90.11653	324.17499	90.11653
12250.00000	89.58539	322.26991	89.58539
12300.00000	89.05652	319.19693	89.05652
12350.00000	88.56721	316.94762	88.56721
12400.00000	88.02653	314.28062	88.02653
12450.00000	87.69882	311.22581	87.69882
12500.00000	87.33005	309.08319	87.33005
12550.00000	86.93082	305.71354	86.93082
12600.00000	86.72116	301.68411	86.72116
12650.00000	86.39146	299.19585	86.39146
12700.00000	86.06779	295.55800	86.06779
12750.00000	85.71462	292.07514	85.71462
12800.00000	85.40489	287.51600	85.40489
12850.00000	85.18229	283.66558	85.18229
12900.00000	84.95956	279.08133	84.95956
12950.00000	84.80312	273.84320	84.80312
13000.00000	84.57671	268.60718	84.57671
13050.00000	84.48374	262.28244	84.48374
13100.00000	84.69103	255.92879	84.69103
13150.00000	84.86289	250.18052	84.86289
13200.00000	85.13371	242.00960	85.13371
13250.00000	86.01284	233.01790	86.01284
13300.00000	86.99882	229.31932	86.99882
13350.00000	88.51697	223.63165	88.51697
13400.00000	89.73109	222.04436	89.73109
13450.00000	90.96090	226.87951	90.96090
13500.00000	91.03400	236.07052	91.03400
13550.00000	90.48658	238.85051	90.48658
13600.00000	89.44226	237.36819	89.44226
13650.00000	88.38264	230.60920	88.38264
13700.00000	87.66156	221.94752	87.66156
13750.00000	87.49516	208.82868	87.49516
13800.00000	87.85521	196.37358	87.85521
13850.00000	88.52102	182.72670	88.52102
13900.00000	89.41642	168.94517	89.41642
13950.00000	90.76695	157.95418	90.76695
14000.00000	92.72116	148.70308	92.72116
14050.00000	94.98611	143.85462	94.98611
14100.00000	97.44432	141.93924	97.44432
14150.00000	99.29724	150.57824	99.29724
14200.00000	99.74640	161.03363	99.74640
14250.00000	98.93166	168.51108	98.93166
14300.00000	97.76179	167.94704	97.76179
14350.00000	96.80221	162.16647	96.80221
14400.00000	96.29463	155.09768	96.29463
14450.00000	96.04810	145.94514	96.04810
14500.00000	96.07093	136.18504	96.07093
14550.00000	96.37563	125.38165	96.37563
14600.00000	96.77076	116.61551	96.77076
14650.00000	97.41698	107.42427	97.41698
14700.00000	98.30094	98.30079	98.30094
14750.00000	99.29635	90.54298	99.29635
14800.00000	100.31712	85.11428	100.31712
14850.00000	101.53160	80.96605	101.53160
14900.00000	102.69265	79.30279	102.69265
14950.00000	103.30093	79.52974	103.30093
15000.00000	103.55452	79.67391	103.55452
15050.00000	103.44439	79.94092	103.44439
15100.00000	103.15741	77.73101	103.15741
15150.00000	102.77768	73.04010	102.77768
15200.00000	102.57777	67.86613	102.57777
15250.00000	102.28132	61.49762	102.28132
15300.00000	102.11912	54.13424	102.11912
15350.00000	102.26384	46.86150	102.26384
15400.00000	102.42584	39.67599	102.42584
15450.00000	102.71663	32.07786	102.71663
15500.00000	103.12560	26.10885	103.12560
15550.00000	103.51119	21.08330	103.51119
15600.00000	104.00745	17.14164	104.00745
15650.00000	104.37795	13.53499	104.37795
15700.00000	104.45998	11.02573	104.45998
15750.00000	104.53243	 9.17183	104.53243
15800.00000	104.33712	 7.08325	104.33712
15850.00000	104.18572	 5.35888	104.18572
15900.00000	103.85721	 2.02707	103.85721
15950.00000	103.63315	-1.56938	103.63315
16000.00000	103.50726	-5.78936	103.50726
16050.00000	103.47586	-10.36014	103.47586
16100.00000	103.38501	-14.84162	103.38501
16150.00000	103.52677	-19.23349	103.52677
16200.00000	103.68477	-23.15072	103.68477
16250.00000	103.85008	-27.81499	103.85008
16300.00000	104.02721	-30.89287	104.02721
16350.00000	104.20747	-33.90461	104.20747
16400.00000	104.29261	-36.20046	104.29261
16450.00000	104.40665	-38.14469	104.40665
16500.00000	104.39994	-41.21206	104.39994
16550.00000	104.36610	-43.99120	104.36610
16600.00000	104.28472	-47.21684	104.28472
16650.00000	104.16073	-50.60230	104.16073
16700.00000	104.11912	-53.77023	104.11912
16750.00000	104.09660	-57.56745	104.09660
16800.00000	104.08254	-60.96196	104.08254
16850.00000	104.18836	-64.43435	104.18836
16900.00000	104.26010	-67.75330	104.26010
16950.00000	104.26816	-71.08010	104.26816
17000.00000	104.33230	-73.88748	104.33230
17050.00000	104.38227	-76.37577	104.38227
17100.00000	104.47617	-79.06236	104.47617
17150.00000	104.42966	-82.21160	104.42966
17200.00000	104.35267	-84.79172	104.35267
17250.00000	104.31806	-87.70241	104.31806
17300.00000	104.30165	-90.86787	104.30165
17350.00000	104.27684	-94.34672	104.27684
17400.00000	104.23750	-97.72987	104.23750
17450.00000	104.23137	-100.84644	104.23137
17500.00000	104.23796	-104.10533	104.23796
17550.00000	104.26004	-107.33442	104.26004
17600.00000	104.30444	-110.72465	104.30444
17650.00000	104.23517	-113.34247	104.23517
17700.00000	104.28437	-116.31392	104.28437
17750.00000	104.21730	-119.29265	104.21730
17800.00000	104.15395	-121.64501	104.15395
17850.00000	104.11033	-124.54744	104.11033
17900.00000	104.07997	-127.43218	104.07997
17950.00000	104.00766	-130.36455	104.00766
18000.00000	103.91076	-132.98887	103.91076
18050.00000	103.91896	-135.50097	103.91896
18100.00000	103.85901	-138.57376	103.85901
18150.00000	103.82203	-141.90979	103.82203
18200.00000	103.75573	-144.86157	103.75573
18250.00000	103.67990	-148.05736	103.67990
18300.00000	103.53898	-150.86650	103.53898
18350.00000	103.44168	-153.60337	103.44168
18400.00000	103.30984	-155.86825	103.30984
18450.00000	103.26200	-158.66484	103.26200
18500.00000	103.17593	-160.90117	103.17593
18550.00000	103.12505	-163.50935	103.12505
18600.00000	102.98984	-165.90707	102.98984
18650.00000	102.92902	-168.35125	102.92902
18700.00000	102.87093	-170.61711	102.87093
18750.00000	102.78725	-173.23087	102.78725
18800.00000	102.63403	-175.71525	102.63403
18850.00000	102.52034	-177.65723	102.52034
18900.00000	102.32999	-179.78229	102.32999
18950.00000	102.24813	-181.50860	102.24813
19000.00000	102.16987	-183.71467	102.16987
19050.00000	102.07716	-185.58217	102.07716
19100.00000	102.03660	-187.31160	102.03660
19150.00000	102.00967	-188.94442	102.00967
19200.00000	101.96243	-191.29905	101.96243
19250.00000	101.89123	-192.76319	101.89123
19300.00000	101.87799	-194.84789	101.87799
19350.00000	101.79009	-196.52548	101.79009
19400.00000	101.69446	-197.88106	101.69446
19450.00000	101.74842	-199.74584	101.74842
19500.00000	101.79970	-201.09935	101.79970
19550.00000	101.80270	-203.19695	101.80270
19600.00000	101.75355	-205.13235	101.75355
19650.00000	101.76208	-206.84612	101.76208
19700.00000	101.80433	-208.66628	101.80433
19750.00000	101.80553	-210.30584	101.80553
19800.00000	101.87575	-211.62819	101.87575
19850.00000	101.90421	-213.57582	101.90421
19900.00000	101.96714	-215.69936	101.96714
19950.00000	102.03276	-217.43704	102.03276
20000.00000	102.09770	-220.05495	102.09770
20050.00000	102.10785	-221.83685	102.10785
20100.00000	102.22729	-223.96805	102.22729
20150.00000	102.25869	-226.20820	102.25869
20200.00000	102.32801	-227.99997	102.32801
20250.00000	102.41401	-229.89729	102.41401
20300.00000	102.49958	-232.27113	102.49958
20350.00000	102.57751	-234.26124	102.57751
20400.00000	102.65017	-236.70492	102.65017
20450.00000	102.74553	-238.99030	102.74553
20500.00000	102.83468	-241.46922	102.83468
20550.00000	102.87916	-244.06072	102.87916
20600.00000	102.93184	-246.51339	102.93184
20650.00000	103.04305	-249.07776	103.04305
20700.00000	103.12526	-251.22579	103.12526
20750.00000	103.14152	-253.79053	103.14152
20800.00000	103.18079	-256.26692	103.18079
20850.00000	103.22669	-259.37509	103.22669
20900.00000	103.26632	-261.62137	103.26632
20950.00000	103.33727	-264.46658	103.33727
21000.00000	103.39227	-267.23297	103.39227
21050.00000	103.44650	-270.03681	103.44650
21100.00000	103.50077	-272.76539	103.50077
21150.00000	103.52918	-275.24483	103.52918
21200.00000	103.57484	-277.82014	103.57484
21250.00000	103.53961	-280.78820	103.53961
21300.00000	103.56035	-283.65785	103.56035
21350.00000	103.59268	-286.39361	103.59268
21400.00000	103.61280	-289.60809	103.61280
21450.00000	103.62096	-292.50803	103.62096
21500.00000	103.64958	-294.94021	103.64958
21550.00000	103.66880	-297.85900	103.66880
21600.00000	103.64087	-300.62873	103.64087
21650.00000	103.63341	-303.35605	103.63341
21700.00000	103.58927	-306.50214	103.58927
21750.00000	103.62538	-309.41293	103.62538
21800.00000	103.58506	-312.78489	103.58506
21850.00000	103.57055	-315.60589	103.57055
21900.00000	103.50346	-318.71782	103.50346
21950.00000	103.46494	-321.65158	103.46494
22000.00000	103.35407	-324.70054	103.35407
22050.00000	103.29271	-327.43470	103.29271
22100.00000	103.20243	-329.98564	103.20243
22150.00000	103.10509	-332.78299	103.10509
22200.00000	103.04587	-335.89081	103.04587
22250.00000	102.98119	-338.63345	102.98119
22300.00000	102.89885	-341.09531	102.89885
22350.00000	102.77488	-343.99626	102.77488
22400.00000	102.68942	-347.14732	102.68942
22450.00000	102.58582	-349.67412	102.58582
22500.00000	102.43927	-352.31177	102.43927
22550.00000	102.32711	-355.04159	102.32711
22600.00000	102.18110	-357.48591	102.18110
22650.00000	102.09385	-359.95302	102.09385
22700.00000	101.94044	-362.26753	101.94044
22750.00000	101.82396	-365.11329	101.82396
22800.00000	101.65514	-367.55423	101.65514
22850.00000	101.49672	-369.86744	101.49672
22900.00000	101.41879	-371.66444	101.41879
22950.00000	101.30958	-373.94278	101.30958
23000.00000	101.17666	-375.89710	101.17666
23050.00000	101.09695	-378.18125	101.09695
23100.00000	100.95215	-380.42590	100.95215
23150.00000	100.81100	-382.50196	100.81100
